#|wavelength|    flux     |
# 5500.000   -2.16599E-18
  5502.553    4.88858E-19
  5505.106    2.20928E-18
#  5507.659   -2.27799E-18
  5510.212    2.75700E-18
  5512.765    1.46683E-18
  5515.318    1.00225E-18
  5517.871    7.49818E-19
  5520.424    5.36773E-19
  5522.977    2.12479E-18
  5525.530    5.72240E-19
  5528.083    3.89612E-19
  5530.636    1.16274E-18
  5533.189    1.36021E-18
  5535.742    5.11657E-19
  5538.295    2.14799E-18
  5540.848    2.55186E-18
  5543.401    2.81837E-18
  5545.954    6.12920E-19
  5548.507    3.90354E-19
  5551.060    1.30241E-18
  5553.613    2.83404E-18
  5556.166    1.01790E-18
  5558.719    1.12805E-18
  5561.272    3.62131E-19
  5563.825    6.49531E-19
#  5566.378   -6.85371E-19
  5568.931    1.09531E-18
  5571.484    1.79090E-18
  5574.037    1.31478E-18
#  5576.590   -1.09704E-18
  5579.143    6.15951E-19
  5581.696    1.09729E-18
  5584.249    1.05920E-18
  5586.802    1.38211E-18
  5589.355    1.72099E-18
  5591.908    2.13419E-18
  5594.461    9.19018E-19
  5597.014    2.07770E-18
  5599.567    1.93137E-18
  5602.120    2.38457E-18
  5604.673    1.78052E-18
  5607.226    1.95847E-18
  5609.779    1.13739E-18
  5612.332    9.75475E-19
  5614.885    1.90505E-18
  5617.438    1.39180E-18
  5619.991    2.57988E-18
  5622.544    1.87582E-18
  5625.097    1.92491E-18
  5627.650    1.35596E-18
  5630.203    1.64394E-18
  5632.756    1.53403E-18
  5635.309    2.25432E-18
  5637.862    1.91317E-18
  5640.415    1.17874E-18
  5642.968    8.13685E-19
  5645.521    7.15635E-19
  5648.074    1.40632E-18
  5650.627    1.27489E-18
  5653.180    2.25514E-18
  5655.733    1.34635E-18
  5658.286    1.85420E-18
  5660.839    1.07913E-18
  5663.392    1.88466E-18
  5665.945    1.49287E-18
  5668.498    1.29677E-18
  5671.051    1.20828E-18
  5673.604    1.29881E-18
  5676.157    1.15835E-18
  5678.710    1.39913E-18
  5681.263    1.53375E-18
  5683.816    1.21639E-18
  5686.369    1.25021E-18
  5688.922    1.29523E-18
  5691.475    1.52618E-18
  5694.028    8.75427E-19
  5696.581    1.13907E-18
  5699.134    1.62675E-18
  5701.687    8.72008E-19
  5704.240    1.75301E-18
  5706.793    1.88172E-18
#  5709.346        0.00000
  5711.899    1.73765E-18
  5714.452    2.18231E-18
  5717.005    1.18324E-18
  5719.558    1.41201E-18
  5722.111    1.46537E-18
  5724.664    1.82589E-18
  5727.217    1.46206E-18
  5729.770    1.69259E-18
  5732.323    1.72617E-18
  5734.876    1.19173E-18
  5737.429    1.21408E-18
  5739.982    1.11389E-18
  5742.535    1.10346E-18
  5745.088    1.28874E-18
  5747.641    1.08749E-18
  5750.194    1.57952E-18
  5752.747    1.95228E-18
  5755.300    1.28949E-18
  5757.853    1.67936E-18
  5760.406    1.91246E-18
  5762.959    1.96576E-18
  5765.512    1.46833E-18
  5768.065    2.06026E-18
  5770.618    1.77543E-18
  5773.171    1.72605E-18
  5775.724    1.54497E-18
  5778.277    1.49303E-18
  5780.830    1.97602E-18
  5783.383    1.74928E-18
  5785.936    1.81070E-18
  5788.489    1.65927E-18
  5791.042    9.30632E-19
  5793.595    1.64992E-18
  5796.148    1.94537E-18
  5798.701    1.91358E-18
  5801.254    1.34580E-18
  5803.807    2.30205E-18
  5806.360    1.86789E-18
  5808.913    1.17735E-18
  5811.466    2.09490E-18
  5814.019    1.62703E-18
  5816.572    1.89324E-18
  5819.125    1.81965E-18
  5821.678    1.56892E-18
  5824.231    1.40675E-18
  5826.784    1.48423E-18
  5829.337    1.68651E-18
  5831.890    1.93866E-18
  5834.443    1.80777E-18
  5836.996    2.24446E-18
  5839.549    1.34630E-18
  5842.102    2.10637E-18
  5844.655    1.29066E-18
  5847.208    2.40843E-18
  5849.761    1.55297E-18
  5852.314    1.40284E-18
  5854.867    1.48004E-18
  5857.420    1.55698E-18
  5859.973    1.95894E-18
  5862.526    1.46744E-18
  5865.079    1.10420E-18
  5867.632    1.41353E-18
  5870.185    1.84888E-18
  5872.738    1.64473E-18
  5875.291    1.62311E-18
  5877.844    1.90109E-18
  5880.397    1.14860E-18
  5882.950    2.02387E-18
  5885.503    1.93048E-18
  5888.056    1.27125E-18
  5890.609    1.62489E-18
  5893.162    1.86669E-18
  5895.715    2.29877E-18
  5898.268    1.65242E-18
  5900.821    1.35478E-18
  5903.374    1.26108E-18
  5905.927    1.81368E-18
  5908.480    2.41261E-18
  5911.033    1.86558E-18
  5913.586    1.52055E-18
  5916.139    1.61907E-18
  5918.692    1.65835E-18
  5921.245    1.65701E-18
  5923.798    1.88008E-18
  5926.351    1.70999E-18
  5928.904    1.49707E-18
  5931.457    1.80921E-18
  5934.010    1.31875E-18
  5936.563    8.95357E-19
  5939.116    6.59921E-19
  5941.669    1.41251E-18
  5944.222    1.71612E-18
  5946.775    1.41346E-18
  5949.328    2.23926E-18
  5951.881    2.16921E-18
  5954.434    2.06409E-18
  5956.987    1.26912E-18
  5959.540    1.16832E-18
  5962.093    1.97172E-18
  5964.646    1.74561E-18
  5967.199    1.90900E-18
  5969.752    1.27676E-18
  5972.305    1.57937E-18
  5974.858    1.92014E-18
  5977.411    1.07723E-18
  5979.964    1.28172E-18
  5982.517    1.16938E-18
  5985.070    1.42417E-18
  5987.623    2.00562E-18
  5990.176    1.38031E-18
  5992.729    1.10960E-18
  5995.282    1.75238E-18
  5997.835    1.94052E-18
  6000.388    1.70585E-18
  6002.941    1.61814E-18
  6005.494    2.12647E-18
  6008.047    1.14044E-18
  6010.600    1.79744E-18
  6013.153    1.69512E-18
  6015.706    1.55493E-18
  6018.259    1.52987E-18
  6020.812    1.92413E-18
  6023.365    1.75580E-18
  6025.918    1.62758E-18
  6028.471    1.61851E-18
  6031.024    1.56882E-18
  6033.577    1.46016E-18
  6036.130    1.46775E-18
  6038.683    1.62344E-18
  6041.236    1.44915E-18
  6043.789    1.80417E-18
  6046.342    1.36579E-18
  6048.895    1.05533E-18
  6051.448    1.60573E-18
  6054.001    1.53134E-18
  6056.554    2.08278E-18
  6059.107    2.09838E-18
  6061.660    1.42873E-18
  6064.213    1.37686E-18
  6066.766    1.95489E-18
  6069.319    1.36040E-18
  6071.872    1.37407E-18
  6074.425    1.75044E-18
  6076.978    1.79271E-18
  6079.531    1.57496E-18
  6082.084    1.54218E-18
  6084.637    1.74903E-18
  6087.190    2.15034E-18
  6089.743    1.69103E-18
  6092.296    1.95318E-18
  6094.849    1.78754E-18
  6097.402    1.32076E-18
  6099.955    1.51077E-18
  6102.508    1.76044E-18
  6105.061    1.61902E-18
  6107.614    1.51537E-18
  6110.167    1.73846E-18
  6112.720    1.61923E-18
  6115.273    1.98645E-18
  6117.826    1.54936E-18
  6120.379    1.68018E-18
  6122.932    1.80221E-18
  6125.485    1.52587E-18
  6128.038    1.48466E-18
  6130.591    2.06398E-18
  6133.144    1.89861E-18
  6135.697    1.88490E-18
  6138.250    9.56790E-19
  6140.803    1.54638E-18
  6143.356    2.12883E-18
#  6145.909        0.00000
  6148.462    2.17413E-18
  6151.015    1.79960E-18
  6153.568    1.75075E-18
  6156.121    1.50048E-18
  6158.674    1.21765E-18
  6161.227    1.39179E-18
  6163.780    1.29074E-18
  6166.333    2.32402E-18
  6168.886    1.37879E-18
  6171.439    2.00721E-18
  6173.992    1.42361E-18
  6176.545    1.26777E-18
  6179.098    1.70997E-18
  6181.651    1.96800E-18
  6184.204    1.72026E-18
  6186.757    1.38520E-18
  6189.310    1.64523E-18
  6191.863    1.71656E-18
  6194.416    1.57924E-18
  6196.969    1.47409E-18
  6199.522    1.58141E-18
  6202.075    1.07493E-18
  6204.628    1.38142E-18
#  6207.181        0.00000
  6209.734    2.05091E-18
  6212.287    1.26014E-18
  6214.840    1.92877E-18
  6217.393    1.30066E-18
  6219.946    1.67531E-18
  6222.499    2.25610E-18
  6225.052    1.77823E-18
  6227.605    1.42308E-18
  6230.158    1.39104E-18
  6232.711    1.50627E-18
  6235.264    1.37294E-18
#  6237.817        0.00000
  6240.370    1.86714E-18
  6242.923    1.64347E-18
  6245.476    2.08158E-18
  6248.029    1.36723E-18
  6250.582    1.66912E-18
  6253.135    2.44807E-18
  6255.688    1.86894E-18
  6258.241    1.45599E-18
  6260.794    1.71023E-18
  6263.347    1.97069E-18
  6265.900    1.31944E-18
  6268.453    1.76343E-18
  6271.006    1.81962E-18
  6273.559    1.71827E-18
  6276.112    2.03819E-18
  6278.665    2.11346E-18
  6281.218    1.69431E-18
  6283.771    1.47119E-18
  6286.324    1.59221E-18
  6288.877    2.85192E-18
  6291.430    2.27119E-18
  6293.983    3.03220E-18
  6296.536    4.36908E-19
  6299.089    2.79945E-19
  6301.642    1.53166E-18
  6304.195    1.73775E-18
  6306.748    1.63670E-18
  6309.301    1.49749E-18
  6311.854    1.59019E-18
  6314.407    1.15431E-18
  6316.960    1.63292E-18
  6319.513    1.19505E-18
  6322.066    1.02403E-18
  6324.619    2.20918E-18
  6327.172    1.89718E-18
  6329.725    1.91409E-18
  6332.278    1.80709E-18
  6334.831    1.81280E-18
  6337.384    1.46276E-18
  6339.937    1.67775E-18
  6342.490    1.80196E-18
  6345.043    1.79763E-18
  6347.596    1.41236E-18
  6350.149    1.47154E-18
  6352.702    2.40088E-18
  6355.255    1.58580E-18
#  6357.808        0.00000
  6360.361    1.26119E-18
  6362.914    8.67350E-19
  6365.467    2.00110E-18
  6368.020    9.26767E-19
  6370.573    1.80542E-18
  6373.126    1.53429E-18
  6375.679    1.67894E-18
  6378.232    1.88225E-18
  6380.785    1.56695E-18
  6383.338    1.74912E-18
  6385.891    1.88989E-18
  6388.444    8.70892E-19
  6390.997    1.58258E-18
  6393.550    1.95119E-18
  6396.103    1.93769E-18
  6398.656    1.49926E-18
  6401.209    1.72719E-18
  6403.762    1.98130E-18
  6406.315    1.30076E-18
  6408.868    1.55608E-18
  6411.421    2.09079E-18
  6413.974    2.07322E-18
  6416.527    2.00703E-18
  6419.080    1.92883E-18
  6421.633    1.52660E-18
  6424.186    1.59720E-18
  6426.739    1.35073E-18
  6429.292    1.83037E-18
  6431.845    1.80098E-18
  6434.398    1.58727E-18
  6436.951    1.87253E-18
  6439.504    1.29930E-18
  6442.057    1.66937E-18
  6444.610    1.67633E-18
  6447.163    1.48969E-18
  6449.716    2.06746E-18
  6452.269    1.86145E-18
  6454.822    1.07180E-18
  6457.375    1.85188E-18
  6459.928    1.85854E-18
  6462.481    1.48581E-18
  6465.034    1.48525E-18
  6467.587    1.58683E-18
  6470.140    1.90852E-18
  6472.693    1.39291E-18
  6475.246    1.11158E-18
  6477.799    1.65106E-18
  6480.352    1.56330E-18
  6482.905    1.83587E-18
  6485.458    1.73948E-18
  6488.011    1.52225E-18
  6490.564    1.31848E-18
  6493.117    1.51958E-18
  6495.670    1.43823E-18
  6498.223    1.73138E-18
  6500.776    1.58650E-18
  6503.329    7.72731E-19
  6505.882    1.52507E-18
  6508.435    1.64437E-18
  6510.988    1.56608E-18
  6513.541    2.12537E-18
  6516.094    1.51656E-18
  6518.647    1.66962E-18
  6521.200    2.14896E-18
  6523.753    1.10518E-18
  6526.306    1.69905E-18
  6528.859    1.86338E-18
  6531.412    1.60166E-18
  6533.965    2.04948E-18
  6536.518    2.06177E-18
  6539.071    1.29456E-18
  6541.624    2.35124E-18
  6544.177    1.56563E-18
  6546.730    1.80324E-18
  6549.283    1.99205E-18
  6551.836    1.85352E-18
  6554.389    1.16807E-18
  6556.942    1.36721E-18
  6559.495    1.75988E-18
  6562.048    1.67935E-18
  6564.601    1.80131E-18
  6567.154    1.29626E-18
  6569.707    1.25775E-18
  6572.260    1.66166E-18
  6574.813    1.46864E-18
  6577.366    1.81375E-18
  6579.919    1.61681E-18
  6582.472    1.53630E-18
  6585.025    1.95742E-18
  6587.578    1.94761E-18
  6590.131    1.97657E-18
  6592.684    1.55661E-18
#  6595.237        0.00000
  6597.790    1.76689E-18
  6600.343    2.05030E-18
  6602.896    2.03417E-18
  6605.449    1.58614E-18
  6608.002    1.55357E-18
  6610.555    1.17672E-18
  6613.108    1.85443E-18
  6615.661    2.15756E-18
  6618.214    1.71949E-18
  6620.767    2.06547E-18
  6623.320    1.99148E-18
  6625.873    1.82323E-18
  6628.426    2.06859E-18
  6630.979    1.53752E-18
  6633.532    1.51908E-18
  6636.085    1.92344E-18
  6638.638    1.90162E-18
  6641.191    1.50833E-18
  6643.744    1.31001E-18
  6646.297    1.75810E-18
  6648.850    1.49594E-18
  6651.403    1.57935E-18
  6653.956    1.75145E-18
  6656.509    1.60872E-18
  6659.062    1.75219E-18
  6661.615    1.82550E-18
  6664.168    1.64248E-18
  6666.721    2.01967E-18
  6669.274    1.59293E-18
  6671.827    1.91403E-18
  6674.380    1.59007E-18
  6676.933    1.27982E-18
  6679.486    1.84613E-18
  6682.039    1.83052E-18
  6684.592    1.40218E-18
#  6687.145        0.00000
  6689.698    1.28631E-18
  6692.251    1.79879E-18
  6694.804    1.76888E-18
  6697.357    1.51830E-18
  6699.910    1.62773E-18
  6702.463    1.79111E-18
  6705.016    1.36769E-18
  6707.569    1.56785E-18
  6710.122    2.32572E-18
  6712.675    1.02364E-18
  6715.228    1.24682E-18
  6717.781    1.44331E-18
  6720.334    1.35361E-18
  6722.887    1.68685E-18
  6725.440    1.78486E-18
  6727.993    1.51667E-18
  6730.546    1.30185E-18
  6733.099    1.56649E-18
  6735.652    1.62995E-18
  6738.205    1.80454E-18
  6740.758    1.66808E-18
  6743.311    1.89289E-18
  6745.864    1.64882E-18
  6748.417    1.69893E-18
  6750.970    1.92531E-18
  6753.523    1.48671E-18
  6756.076    2.02420E-18
  6758.629    1.81558E-18
  6761.182    2.06851E-18
  6763.735    2.07039E-18
  6766.288    1.73960E-18
  6768.841    1.89772E-18
  6771.394    1.52838E-18
  6773.947    1.43700E-18
  6776.500    1.40330E-18
  6779.053    1.85878E-18
  6781.606    2.27661E-18
  6784.159    1.77445E-18
  6786.712    1.84851E-18
  6789.265    1.78326E-18
  6791.818    1.81131E-18
  6794.371    1.64767E-18
  6796.924    1.88497E-18
  6799.477    2.01249E-18
  6802.030    1.28107E-18
  6804.583    1.79409E-18
  6807.136    1.79939E-18
  6809.689    1.81178E-18
  6812.242    1.22607E-18
  6814.795    1.79296E-18
  6817.348    2.17898E-18
  6819.901    1.44936E-18
  6822.454    1.62020E-18
  6825.007    2.31009E-18
  6827.560    1.88145E-18
  6830.113    1.45853E-18
  6832.666    1.63634E-18
  6835.219    1.57477E-18
  6837.772    1.57071E-18
  6840.325    1.55293E-18
  6842.878    1.58728E-18
  6845.431    1.81870E-18
  6847.984    1.60419E-18
  6850.537    1.79997E-18
  6853.090    1.90953E-18
  6855.643    1.49820E-18
  6858.196    1.11926E-18
  6860.749    1.78734E-18
  6863.302    2.14108E-18
  6865.855    1.90193E-18
  6868.408    1.17195E-18
  6870.961    1.29906E-18
  6873.514    1.49100E-18
  6876.067    1.59662E-18
  6878.620    1.55417E-18
  6881.173    1.32473E-18
  6883.726    1.18552E-18
  6886.279    1.75794E-18
  6888.832    1.35426E-18
  6891.385    1.36492E-18
  6893.938    1.37269E-18
  6896.491    1.73680E-18
  6899.044    1.28997E-18
  6901.597    1.75756E-18
  6904.150    1.04268E-18
  6906.703    1.68284E-18
  6909.256    1.99538E-18
  6911.809    1.59655E-18
  6914.362    2.03181E-18
  6916.915    1.05250E-18
  6919.468    1.98874E-18
  6922.021    2.11892E-18
  6924.574    2.00284E-18
  6927.127    1.79985E-18
  6929.680    1.85805E-18
  6932.233    1.48175E-18
  6934.786    1.58342E-18
  6937.339    2.16627E-18
  6939.892    2.28796E-18
  6942.445    1.67380E-18
  6944.998    1.81178E-18
  6947.551    1.35545E-18
  6950.104    1.59056E-18
  6952.657    2.21374E-18
  6955.210    1.92814E-18
  6957.763    2.02742E-18
  6960.316    1.82730E-18
  6962.869    1.14176E-18
  6965.422    1.94302E-18
  6967.975    2.18647E-18
  6970.528    1.99011E-18
  6973.081    1.58115E-18
  6975.634    1.82394E-18
  6978.187    1.52822E-18
  6980.740    1.87994E-18
  6983.293    1.65895E-18
  6985.846    1.27648E-18
  6988.399    1.46361E-18
  6990.952    1.67538E-18
  6993.505    1.53769E-18
  6996.058    1.97537E-18
  6998.611    1.51593E-18
  7001.164    1.57335E-18
  7003.717    1.04280E-18
  7006.270    1.73347E-18
  7008.823    1.73895E-18
  7011.376    1.19369E-18
  7013.929    1.85299E-18
  7016.482    1.64765E-18
  7019.035    1.82596E-18
  7021.588    1.95396E-18
  7024.141    1.22109E-18
  7026.694    1.34009E-18
  7029.247    1.53823E-18
  7031.800    1.29304E-18
  7034.353    1.53918E-18
  7036.906    1.38284E-18
  7039.459    1.33061E-18
  7042.012    2.17288E-18
  7044.565    2.10047E-18
  7047.118    1.44786E-18
  7049.671    1.50173E-18
  7052.224    1.78553E-18
  7054.777    1.36449E-18
  7057.330    1.17022E-18
  7059.883    1.59130E-18
  7062.436    2.17004E-18
  7064.989    1.66812E-18
  7067.542    1.76979E-18
  7070.095    1.79752E-18
  7072.648    1.94492E-18
  7075.201    2.11930E-18
  7077.754    3.98033E-18
  7080.307    7.07162E-18
  7082.860    1.02947E-17
  7085.413    1.27564E-17
  7087.966    1.29128E-17
  7090.519    1.09587E-17
  7093.072    7.00467E-18
  7095.625    4.38651E-18
  7098.178    2.07860E-18
  7100.731    1.19076E-18
  7103.284    1.42632E-18
  7105.837    1.57458E-18
  7108.390    1.67502E-18
  7110.943    1.94314E-18
  7113.496    2.04056E-18
  7116.049    2.53005E-18
  7118.602    2.28789E-18
  7121.155    1.64970E-18
  7123.708    1.87989E-18
  7126.261    1.43432E-18
  7128.814    1.06596E-18
  7131.367    1.70325E-18
  7133.920    1.80769E-18
#  7136.473        0.00000
  7139.026    1.92421E-18
  7141.579    2.01780E-18
  7144.132    2.15355E-18
  7146.685    2.03636E-18
  7149.238    2.26508E-18
  7151.791    2.05181E-18
  7154.344    2.38170E-18
  7156.897    2.08918E-18
  7159.450    2.02717E-18
  7162.003    1.86931E-18
  7164.556    1.49248E-18
  7167.109    1.66971E-18
  7169.662    1.69938E-18
  7172.215    1.91662E-18
  7174.768    1.72820E-18
  7177.321    1.60399E-18
  7179.874    2.04780E-18
  7182.427    1.84460E-18
  7184.980    2.77438E-18
  7187.533    2.48726E-18
  7190.086    1.92815E-18
  7192.639    2.38765E-18
  7195.192    2.51717E-18
  7197.745    2.65289E-18
  7200.298    2.48528E-18
  7202.851    2.22489E-18
  7205.404    2.29101E-18
  7207.957    2.03997E-18
  7210.510    2.24285E-18
  7213.063    2.45672E-18
  7215.616    1.81969E-18
  7218.169    2.11939E-18
  7220.722    1.75969E-18
  7223.275    1.43637E-18
  7225.828    1.93638E-18
  7228.381    1.84110E-18
  7230.934    2.92282E-18
  7233.487    2.13756E-18
  7236.040    2.49881E-18
  7238.593    2.62561E-18
  7241.146    2.30138E-18
  7243.699    3.01188E-18
  7246.252    2.36095E-18
  7248.805    2.63969E-18
  7251.358    2.23202E-18
  7253.911    2.41869E-18
  7256.464    2.75967E-18
  7259.017    2.63956E-18
  7261.570    2.32027E-18
  7264.123    2.36996E-18
  7266.676    2.86582E-18
  7269.229    2.07317E-18
  7271.782    1.87176E-18
  7274.335    2.31271E-18
  7276.888    2.09319E-18
  7279.441    2.06104E-18
  7281.994    2.17974E-18
  7284.547    2.04135E-18
  7287.100    1.46430E-18
  7289.653    1.57940E-18
  7292.206    1.51141E-18
  7294.759    1.66415E-18
  7297.312    1.94860E-18
  7299.865    2.24204E-18
  7302.418    1.99990E-18
  7304.971    2.36074E-18
  7307.524    2.39189E-18
  7310.077    2.61599E-18
  7312.630    2.22562E-18
  7315.183    2.50895E-18
  7317.736    1.99767E-18
  7320.289    2.48888E-18
  7322.842    2.63756E-18
  7325.395    2.35236E-18
  7327.948    2.40226E-18
  7330.501    3.09642E-18
  7333.054    3.06744E-18
  7335.607    1.56799E-18
  7338.160    2.05838E-18
  7340.713    2.25680E-18
  7343.266    2.31763E-18
  7345.819    3.24788E-18
  7348.372    2.71668E-18
  7350.925    2.61161E-18
  7353.478    3.14189E-18
  7356.031    3.50534E-18
  7358.584    3.03253E-18
  7361.137    2.32517E-18
  7363.690    3.60177E-18
  7366.243    2.38259E-18
  7368.796    2.71109E-18
  7371.349    1.99713E-18
  7373.902    2.52421E-18
  7376.455    2.15712E-18
  7379.008    2.50246E-18
  7381.561    2.07300E-18
  7384.114    2.04337E-18
  7386.667    1.87850E-18
  7389.220    2.44361E-18
  7391.773    2.25593E-18
  7394.326    2.02679E-18
  7396.879    2.40865E-18
  7399.432    2.34020E-18
  7401.985    2.14480E-18
  7404.538    2.11217E-18
  7407.091    2.23982E-18
  7409.644    2.18586E-18
  7412.197    2.43425E-18
  7414.750    2.07752E-18
  7417.303    2.16407E-18
  7419.856    2.43533E-18
  7422.409    2.57819E-18
  7424.962    2.70817E-18
  7427.515    2.50254E-18
  7430.068    2.34579E-18
  7432.621    2.59271E-18
  7435.174    2.37810E-18
  7437.727    2.89484E-18
  7440.280    2.70291E-18
  7442.833    2.33469E-18
  7445.386    2.30012E-18
  7447.939    2.63562E-18
  7450.492    2.97146E-18
  7453.045    3.00673E-18
  7455.598    2.15327E-18
  7458.151    2.04723E-18
  7460.704    2.48526E-18
  7463.257    2.87169E-18
  7465.810    2.45642E-18
  7468.363    1.90211E-18
  7470.916    2.85802E-18
  7473.469    2.99516E-18
  7476.022    2.23634E-18
  7478.575    2.55785E-18
  7481.128    1.45573E-18
  7483.681    3.00500E-18
  7486.234    1.96796E-18
  7488.787    2.16891E-18
  7491.340    2.12695E-18
  7493.893    2.80878E-18
  7496.446    2.06147E-18
  7498.999    2.94926E-18
  7501.552    2.78499E-18
  7504.105    2.29926E-18
  7506.658    2.42172E-18
  7509.211    2.98875E-18
  7511.764    2.15496E-18
  7514.317    2.36828E-18
  7516.870    1.97006E-18
  7519.423    1.55625E-18
  7521.976    3.06468E-18
  7524.529    1.79683E-18
  7527.082    1.69447E-18
  7529.635    1.89910E-18
  7532.188    2.03743E-18
  7534.741    1.61279E-18
  7537.294    1.29861E-18
  7539.847    1.28804E-18
  7542.400    1.61062E-18
  7544.953    1.67205E-18
  7547.506    1.94771E-18
  7550.059    1.63223E-18
  7552.612    1.76269E-18
  7555.165    1.89810E-18
  7557.718    2.24364E-18
  7560.271    2.31908E-18
  7562.824    2.25000E-18
  7565.377    2.94045E-18
  7567.930    2.30085E-18
  7570.483    2.48182E-18
  7573.036    2.63146E-18
  7575.589    2.59838E-18
  7578.142    2.51727E-18
  7580.695    2.40317E-18
  7583.248    2.70438E-18
  7585.801    2.77164E-18
  7588.354    1.74322E-18
  7590.907    2.31248E-18
  7593.460    2.32643E-18
  7596.013    3.50423E-18
  7598.566    1.86324E-18
  7601.119    3.51699E-18
  7603.672    2.82822E-18
  7606.225    1.88946E-18
  7608.778    3.38805E-18
  7611.331    2.35201E-18
  7613.884    3.13216E-18
  7616.437    2.28604E-18
  7618.990    3.47746E-18
  7621.543    3.02746E-18
  7624.096    2.83832E-18
  7626.649    2.00860E-18
  7629.202    3.42354E-18
  7631.755    2.97448E-18
  7634.308    3.04922E-18
  7636.861    2.33065E-18
  7639.414    2.63522E-18
  7641.967    2.84591E-18
  7644.520    2.96550E-18
  7647.073    2.47116E-18
  7649.626    2.22145E-18
  7652.179    2.86762E-18
  7654.732    2.80429E-18
  7657.285    3.36608E-18
  7659.838    2.76524E-18
  7662.391    2.23976E-18
  7664.944    2.84961E-18
  7667.497    2.67035E-18
  7670.050    2.78371E-18
  7672.603    2.40370E-18
  7675.156    2.11772E-18
  7677.709    2.86719E-18
  7680.262    2.49110E-18
  7682.815    2.34027E-18
  7685.368    2.24532E-18
  7687.921    3.33417E-18
  7690.474    3.33038E-18
  7693.027    2.91526E-18
  7695.580    3.44289E-18
  7698.133    3.11783E-18
  7700.686    4.13837E-18
  7703.239    3.05573E-18
  7705.792    3.20727E-18
  7708.345    1.90628E-18
  7710.898    1.35459E-18
  7713.451    2.75943E-18
  7716.004    2.72074E-18
  7718.557    2.53188E-18
  7721.110    3.03874E-18
  7723.663    3.12498E-18
  7726.216    3.16283E-18
  7728.769    3.24004E-18
  7731.322    3.21176E-18
  7733.875    2.91737E-18
  7736.428    2.69952E-18
  7738.981    2.87957E-18
  7741.534    3.86384E-18
  7744.087    3.94490E-18
  7746.640    2.85872E-18
  7749.193    2.40600E-18
  7751.746    2.31860E-18
  7754.299    2.28042E-18
  7756.852    2.14143E-18
  7759.405    3.24998E-18
  7761.958    2.56757E-18
  7764.511    2.30304E-18
  7767.064    2.24666E-18
  7769.617    1.80286E-18
  7772.170    1.82549E-18
  7774.723    3.30960E-18
  7777.276    2.44664E-18
  7779.829    2.08297E-18
  7782.382    1.95318E-18
  7784.935    2.36826E-18
  7787.488    2.18075E-18
  7790.041    1.77752E-18
  7792.594    2.33288E-18
  7795.147    3.09039E-18
  7797.700    2.28555E-18
  7800.253    3.05508E-18
  7802.806    2.66805E-18
  7805.359    2.43122E-18
  7807.912    2.39905E-18
  7810.465    2.12708E-18
  7813.018    1.87210E-18
  7815.571    2.09926E-18
  7818.124    2.48483E-18
  7820.677    2.56043E-18
  7823.230    2.91007E-18
  7825.783    2.73246E-18
  7828.336    3.04001E-18
  7830.889    2.00839E-18
  7833.442    2.74107E-18
  7835.995    3.49018E-18
  7838.548    2.51971E-18
  7841.101    3.06745E-18
  7843.654    2.04019E-18
  7846.207    2.10699E-18
  7848.760    2.91372E-18
  7851.313    3.05540E-18
  7853.866    1.58343E-18
  7856.419    2.95549E-18
  7858.972    1.01996E-18
  7861.525    2.59502E-18
  7864.078    2.91163E-18
  7866.631    2.03863E-18
  7869.184    4.04402E-18
  7871.737    2.76280E-18
  7874.290    2.47033E-18
  7876.843    3.06910E-18
  7879.396    3.03522E-18
  7881.949    2.90802E-18
  7884.502    3.29340E-18
  7887.055    2.59786E-18
  7889.608    3.21865E-18
  7892.161    1.99778E-18
  7894.714    2.08767E-18
  7897.267    2.86241E-18
  7899.820    2.70743E-18
  7902.373    2.06524E-18
  7904.926    2.52928E-18
  7907.479    2.45543E-18
  7910.032    2.08400E-18
  7912.585    3.03628E-18
  7915.138    2.60638E-18
  7917.691    3.28370E-18
  7920.244    3.51780E-18
  7922.797    2.15583E-18
  7925.350    2.77368E-18
  7927.903    2.30014E-18
  7930.456    2.06603E-18
  7933.009    1.98216E-18
  7935.562    2.59823E-18
  7938.115    3.05725E-18
  7940.668    1.98892E-18
  7943.221    2.05452E-18
  7945.774    2.30561E-18
  7948.327    2.98903E-18
  7950.880    3.89796E-18
  7953.433    3.42247E-18
  7955.986    3.01921E-18
  7958.539    2.84615E-18
  7961.092    3.11863E-18
  7963.645    1.65406E-18
  7966.198    2.32475E-18
  7968.751    2.43168E-18
  7971.304    2.16366E-18
  7973.857    3.09930E-18
  7976.410    2.36532E-18
  7978.963    2.45355E-18
  7981.516    2.73144E-18
  7984.069    2.32952E-18
  7986.622    2.37767E-18
  7989.175    2.57536E-18
  7991.728    2.62877E-18
  7994.281    3.97585E-18
  7996.834    2.98296E-18
  7999.387    2.50170E-18
  8001.940    2.92640E-18
  8004.493    3.07726E-18
  8007.046    3.11395E-18
  8009.599    2.34648E-18
  8012.152    1.91866E-18
  8014.705    2.33687E-18
  8017.258    1.00562E-18
  8019.811    2.90410E-18
  8022.364    2.41502E-18
  8024.917    3.86946E-18
  8027.470    2.89353E-18
  8030.023    2.64925E-18
  8032.576    2.93841E-18
  8035.129    2.70867E-18
  8037.682    2.84340E-18
  8040.235    2.67025E-18
  8042.788    2.66383E-18
  8045.341    3.11846E-18
  8047.894    3.61114E-18
  8050.447    1.63610E-18
  8053.000    1.35803E-18
  8055.553    1.82934E-18
  8058.106    3.17177E-18
  8060.659    2.86597E-18
  8063.212    1.92991E-18
  8065.765    2.17440E-18
  8068.318    2.55921E-18
  8070.871    2.39680E-18
  8073.424    2.82150E-18
  8075.977    2.79259E-18
  8078.530    2.90915E-18
  8081.083    2.40959E-18
  8083.636    2.75010E-18
  8086.189    2.95513E-18
  8088.742    3.11196E-18
  8091.295    3.15267E-18
  8093.848    3.18345E-18
  8096.401    3.46086E-18
  8098.954    3.68353E-18
  8101.507    2.83619E-18
  8104.060    3.31585E-18
  8106.613    2.05633E-18
  8109.166    2.24848E-18
  8111.719    2.52247E-18
  8114.272    2.08151E-18
  8116.825    2.26260E-18
  8119.378    2.12468E-18
  8121.931    1.84318E-18
  8124.484    2.12115E-18
  8127.037    2.71253E-18
  8129.590    2.56248E-18
  8132.143    1.71495E-18
  8134.696    2.90678E-18
  8137.249    2.88625E-18
  8139.802    2.84615E-18
  8142.355    2.17607E-18
  8144.908    2.63667E-18
  8147.461    2.07692E-18
  8150.014    2.43823E-18
  8152.567    2.76560E-18
  8155.120    2.48846E-18
  8157.673    2.95308E-18
  8160.226    2.60101E-18
  8162.779    1.94854E-18
  8165.332    2.20918E-18
  8167.885    1.85756E-18
  8170.438    2.43314E-18
  8172.991    1.99085E-18
  8175.544    1.58404E-18
  8178.097    1.57283E-18
  8180.650    1.81179E-18
  8183.203    1.57199E-18
  8185.756    1.53749E-18
  8188.309    2.44485E-18
  8190.862    2.54368E-18
  8193.415    2.19635E-18
  8195.968    2.22552E-18
  8198.521    2.55653E-18
  8201.074    2.23354E-18
  8203.627    2.58344E-18
  8206.180    2.96336E-18
  8208.733    3.03848E-18
  8211.286    2.71099E-18
  8213.839    2.69581E-18
  8216.392    2.13051E-18
  8218.945    2.48668E-18
  8221.498    1.79407E-18
  8224.051    1.31975E-18
  8226.604    2.01957E-18
  8229.157    2.04038E-18
  8231.710    1.76801E-18
  8234.263    1.36037E-18
  8236.816    1.80764E-18
  8239.369    2.24850E-18
  8241.922    1.39483E-18
  8244.475    1.71584E-18
  8247.028    3.62684E-18
  8249.581    3.98570E-18
  8252.134    3.60853E-18
  8254.687    3.34305E-18
  8257.240    3.24982E-18
  8259.793    2.34398E-18
  8262.346    2.28815E-18
  8264.899    2.40940E-18
  8267.452    1.85265E-18
  8270.005    1.74910E-18
  8272.558    1.62765E-18
  8275.111    1.37654E-18
  8277.664    1.34443E-18
  8280.217    9.33779E-19
  8282.770    1.58857E-18
  8285.323    2.98474E-18
  8287.876    2.48065E-18
  8290.429    2.00144E-18
  8292.982    1.52089E-18
  8295.535    2.00570E-18
  8298.088    3.27727E-18
  8300.641    3.11486E-18
  8303.194    2.48209E-18
  8305.747    2.32844E-18
  8308.300    2.08524E-18
  8310.853    1.37200E-18
  8313.406    2.11824E-18
  8315.959    1.65378E-18
  8318.512    1.74256E-18
  8321.065    2.04469E-18
  8323.618    1.98118E-18
  8326.171    1.73850E-18
  8328.724    2.48672E-18
  8331.277    2.48830E-18
  8333.830    2.18272E-18
  8336.383    2.92607E-18
  8338.936    2.42196E-18
  8341.489    1.07125E-18
  8344.042    1.39923E-18
  8346.595    2.37310E-18
  8349.148    1.83365E-18
  8351.701    2.53323E-18
  8354.254    1.83310E-18
  8356.807    1.38341E-18
  8359.360    8.10863E-19
  8361.913    1.81126E-18
  8364.466    2.46762E-18
  8367.019    2.08401E-18
  8369.572    2.98370E-18
  8372.125    3.15321E-18
  8374.678    3.80744E-18
  8377.231    2.14436E-18
  8379.784    1.55013E-18
  8382.337    3.19723E-18
  8384.890    2.90416E-18
  8387.443    3.09028E-18
  8389.996    3.52479E-18
  8392.549    2.45890E-18
  8395.102    1.91841E-18
  8397.655    2.73845E-18
  8400.208    2.64847E-18
  8402.761    8.84014E-19
  8405.314    1.66560E-18
  8407.867    2.73552E-18
  8410.420    1.88474E-18
  8412.973    2.07552E-18
  8415.526    1.34517E-18
  8418.079    1.89800E-18
  8420.632    2.85317E-18
  8423.185    1.17895E-18
#  8425.738        0.00000
  8428.291    1.64105E-18
  8430.844    2.57652E-18
  8433.397    2.49283E-18
  8435.950    2.64689E-18
  8438.503    2.33115E-18
  8441.056    2.38266E-18
  8443.609    1.69597E-18
  8446.162    1.06025E-18
  8448.715    1.80015E-18
  8451.268    2.68425E-18
  8453.821    1.74431E-18
  8456.374    1.80016E-18
  8458.927    3.03625E-18
  8461.480    3.02621E-18
  8464.033    1.54061E-18
  8466.586    1.98479E-18
  8469.139    2.39629E-18
  8471.692    3.06841E-18
  8474.245    2.11089E-18
  8476.798    2.30277E-18
  8479.351    3.88786E-18
  8481.904    2.24157E-18
  8484.457    2.30748E-18
  8487.010    2.44148E-18
  8489.563    2.97268E-18
  8492.116    1.78490E-18
  8494.669    1.62856E-18
  8497.222    1.69443E-18
  8499.775    1.70743E-18
  8502.328    5.82969E-19
  8504.881    2.40907E-18
  8507.434    7.18057E-19
  8509.987    2.07485E-18
  8512.540    2.30055E-18
  8515.093    2.07802E-18
  8517.646    1.35583E-18
  8520.199    2.64186E-18
  8522.752    3.15362E-18
  8525.305    2.44996E-18
  8527.858    1.38786E-18
  8530.411    2.68499E-18
  8532.964    2.89423E-18
  8535.517    2.01861E-18
  8538.070    1.59259E-18
  8540.623    1.64429E-18
  8543.176    2.36272E-18
  8545.729    2.88321E-18
  8548.282    2.69807E-18
  8550.835    1.71741E-18
  8553.388    1.63207E-18
  8555.941    1.53003E-18
  8558.494    1.82142E-18
  8561.047    2.10825E-18
  8563.600    1.44384E-18
  8566.153    2.58181E-18
  8568.706    2.66906E-18
  8571.259    2.15508E-18
  8573.812    2.58325E-18
  8576.365    2.93000E-18
  8578.918    2.84508E-18
  8581.471    3.08539E-18
  8584.024    3.20728E-18
  8586.577    3.23845E-18
  8589.130    2.27117E-18
  8591.683    1.78911E-18
  8594.236    1.73735E-18
  8596.789    1.96025E-18
  8599.342    1.81931E-18
  8601.895    1.61437E-18
  8604.448    1.66237E-18
  8607.001    1.39097E-18
  8609.554    1.86243E-18
  8612.107    2.22237E-18
  8614.660    2.63416E-18
  8617.213    3.42723E-18
  8619.766    2.97967E-18
  8622.319    4.67016E-18
  8624.872    2.69175E-18
  8627.425    2.92372E-18
  8629.978    2.73497E-18
  8632.531    1.67284E-18
  8635.084    2.04215E-18
  8637.637    3.01661E-18
  8640.190    2.21187E-18
  8642.743    2.06326E-18
  8645.296    2.88165E-18
  8647.849    1.05273E-18
  8650.402    5.75370E-19
  8652.955    1.60339E-18
  8655.508    2.15127E-18
  8658.061    2.09940E-18
  8660.614    9.61380E-19
  8663.167    1.89676E-18
  8665.720    2.20830E-18
  8668.273    2.28551E-18
  8670.826    2.36452E-18
  8673.379    2.71476E-18
  8675.932    3.32238E-18
  8678.485    2.34756E-18
  8681.038    3.70824E-18
  8683.591    2.99144E-18
  8686.144    3.07708E-18
  8688.697    2.52074E-18
  8691.250    2.91603E-18
  8693.803    3.86008E-18
  8696.356    3.55600E-18
  8698.909    3.35593E-18
  8701.462    2.68756E-18
  8704.015    2.23235E-18
  8706.568    1.65988E-18
  8709.121    1.51884E-18
  8711.674    1.71295E-18
  8714.227    1.63828E-18
  8716.780    1.33879E-18
  8719.333    1.53777E-18
  8721.886    1.63598E-18
  8724.439    2.33095E-18
  8726.992    1.52850E-18
  8729.545    1.72545E-18
  8732.098    2.38917E-18
  8734.651    2.85564E-18
  8737.204    2.75790E-18
  8739.757    2.92355E-18
  8742.310    2.70390E-18
  8744.863    2.19254E-18
  8747.416    2.58455E-18
  8749.969    2.73954E-18
  8752.522    2.15167E-18
  8755.075    3.01991E-18
  8757.628    4.48865E-18
#  8760.181   -1.44908E-18
  8762.734    2.86978E-18
  8765.287    1.26264E-18
  8767.840    1.03952E-18
  8770.393    1.50854E-18
  8772.946    3.47460E-18
  8775.499    1.35704E-18
  8778.052    1.77727E-18
  8780.605    1.64511E-18
  8783.158    2.46570E-18
  8785.711    1.05973E-18
  8788.264    8.73271E-19
  8790.817    2.57521E-18
  8793.370    1.29695E-18
  8795.923    2.01204E-18
  8798.476    1.76695E-18
  8801.029    1.32070E-18
  8803.582    1.48447E-18
  8806.135    1.82915E-18
  8808.688    1.27768E-18
  8811.241    2.31779E-18
  8813.794    2.17551E-18
  8816.347    3.10061E-18
  8818.900    4.89956E-18
  8821.453    4.96390E-18
  8824.006    6.38334E-18
  8826.559    1.57899E-18
  8829.112    1.41352E-18
  8831.665    1.03422E-18
  8834.218    1.31290E-18
  8836.771    9.97438E-19
#  8839.324   -7.44257E-19
  8841.877    2.46599E-21
  8844.430    8.41287E-19
  8846.983    1.62613E-18
  8849.536    1.03097E-18
  8852.089    1.61113E-18
  8854.642    1.74889E-18
  8857.195    1.46274E-18
  8859.748    1.58348E-18
  8862.301    3.22289E-18
  8864.854    1.51220E-18
  8867.407    2.17023E-18
  8869.960    2.70268E-18
  8872.513    2.23647E-18
  8875.066    2.84274E-18
  8877.619    6.64198E-18
  8880.172    4.14865E-18
  8882.725    3.18478E-18
  8885.278    2.03390E-18
  8887.831    4.08808E-18
  8890.384    1.58832E-18
  8892.937    2.47548E-18
  8895.490    1.64259E-18
  8898.043    1.12739E-18
  8900.596    1.53649E-18
  8903.149    1.16722E-18
  8905.702    1.88887E-18
  8908.255    2.83348E-19
  8910.808    3.52293E-19
  8913.361    1.26411E-18
#  8915.914        0.00000
  8918.467    2.92868E-18
  8921.020    3.96364E-18
#  8923.573        0.00000
  8926.126    2.07795E-18
  8928.679    2.76818E-18
  8931.232    2.34255E-18
  8933.785    2.74837E-18
  8936.338    2.77111E-18
  8938.891    1.13901E-18
  8941.444    4.33834E-18
  8943.997    3.26895E-18
  8946.550    2.51900E-18
  8949.103    3.71753E-18
#  8951.656   -4.20341E-19
  8954.209    4.56270E-18
  8956.762    5.10821E-18
  8959.315    3.59922E-18
  8961.868    6.94951E-19
  8964.421    1.12555E-18
  8966.974    1.47292E-18
  8969.527    1.10209E-18
  8972.080    1.44341E-18
  8974.633    1.28611E-18
  8977.186    1.43799E-18
  8979.739    2.34245E-18
  8982.292    8.35918E-19
  8984.845    9.84856E-19
  8987.398    1.24444E-18
  8989.951    2.67539E-18
  8992.504    4.26186E-18
  8995.057    4.04922E-18
  8997.610    1.66143E-18
  9000.163    1.11420E-18
  9002.716    8.55236E-19
  9005.269    2.07056E-18
  9007.822    2.84300E-18
  9010.375    2.83102E-18
  9012.928    1.98170E-18
  9015.481    1.99722E-18
  9018.034    1.74714E-18
  9020.587    1.96738E-18
  9023.140    1.01611E-18
  9025.693    8.54579E-19
  9028.246    1.26095E-18
  9030.799    1.14939E-18
  9033.352    4.82702E-19
  9035.905    1.40209E-18
  9038.458    2.17334E-18
  9041.011    2.09116E-18
  9043.564    2.54071E-18
  9046.117    1.73605E-18
  9048.670    1.94658E-18
  9051.223    2.05878E-18
  9053.776    2.69312E-18
  9056.329    2.06303E-18
  9058.882    1.52100E-18
  9061.435    2.24595E-18
  9063.988    2.03386E-18
  9066.541    8.17462E-19
  9069.094    7.58455E-19
  9071.647    1.44959E-18
  9074.200    1.25324E-18
  9076.753    1.02623E-18
  9079.306    1.76301E-18
  9081.859    2.03599E-18
  9084.412    1.04144E-18
  9086.965    1.91067E-18
  9089.518    2.12371E-18
  9092.071    2.69883E-18
  9094.624    2.83377E-18
  9097.177    2.50480E-18
  9099.730    2.33489E-18
  9102.283    2.26089E-18
  9104.836    2.86979E-18
  9107.389    2.02712E-18
  9109.942    1.63076E-18
  9112.495    1.29504E-18
  9115.048    1.24819E-18
  9117.601    1.58652E-18
  9120.154    8.55118E-19
  9122.707    7.42544E-19
  9125.260    1.01512E-18
  9127.813    1.42728E-18
  9130.366    1.29373E-18
  9132.919    8.88949E-19
  9135.472    1.60062E-18
  9138.025    1.97436E-18
  9140.578    2.07748E-18
  9143.131    2.40921E-18
  9145.684    2.09882E-18
  9148.237    2.90713E-18
  9150.790    2.96200E-18
  9153.343    2.59756E-18
  9155.896    1.48118E-18
  9158.449    1.71598E-18
  9161.002    1.62883E-18
  9163.555    1.31975E-18
  9166.108    1.30262E-18
  9168.661    1.29706E-18
  9171.214    8.33223E-19
  9173.767    6.70341E-19
  9176.320    1.36319E-18
  9178.873    1.67753E-18
  9181.426    1.96466E-18
  9183.979    1.90675E-18
  9186.532    1.41883E-18
  9189.085    1.98406E-18
  9191.638    2.55086E-18
  9194.191    1.72189E-18
  9196.744    3.03436E-18
  9199.297    1.74303E-18
  9201.850    2.37509E-18
  9204.403    1.04908E-18
  9206.956    1.85951E-18
  9209.509    1.67993E-18
  9212.062    1.00446E-18
  9214.615    1.24464E-18
  9217.168    6.46907E-19
  9219.721    8.10035E-19
  9222.274    7.98501E-19
  9224.827    1.49075E-18
  9227.380    1.08894E-18
  9229.933    1.17194E-18
  9232.486    1.08221E-18
  9235.039    2.07001E-18
  9237.592    4.02724E-18
  9240.145    5.71735E-18
  9242.698    6.05150E-18
  9245.251    5.44550E-18
  9247.804    4.22273E-18
  9250.357    1.89298E-18
  9252.910    2.84671E-18
  9255.463    1.68187E-18
  9258.016    1.88434E-18
  9260.569    1.90249E-18
  9263.122    1.65339E-18
  9265.675    1.44490E-18
  9268.228    1.41468E-18
  9270.781    7.31063E-19
  9273.334    7.43511E-19
  9275.887    1.68721E-18
  9278.440    5.86840E-19
  9280.993    1.11202E-18
  9283.546    1.96546E-18
#  9286.099   -2.25501E-19
  9288.652    9.62959E-19
  9291.205    1.82024E-18
  9293.758    1.62482E-18
  9296.311    2.72053E-19
  9298.864    2.27879E-18
  9301.417    4.21389E-18
  9303.970    4.19388E-18
  9306.523    4.44803E-18
  9309.076    4.00864E-18
  9311.629    5.05168E-18
  9314.182    9.66124E-19
  9316.735    1.03703E-18
  9319.288    1.45136E-18
#  9321.841   -1.08548E-18
  9324.394    9.29426E-19
  9326.947    1.73855E-18
  9329.500    1.37636E-18
  9332.053    1.09462E-18
  9334.606    1.14928E-18
  9337.159    7.64998E-20
  9339.712    1.34623E-19
  9342.265    9.52777E-19
  9344.818    8.96321E-19
  9347.371    5.10551E-19
  9349.924    7.65956E-19
  9352.477    2.08289E-18
  9355.030    1.00711E-18
  9357.583    7.44221E-19
  9360.136    1.44417E-18
  9362.689    1.89237E-18
  9365.242    3.17494E-18
  9367.795    3.27062E-18
  9370.348    4.78068E-18
#  9372.901   -2.72723E-18
#  9375.454   -4.84752E-18
#  9378.007   -1.27911E-18
  9380.560    9.73254E-19
  9383.113    2.06994E-18
  9385.666    1.15919E-18
  9388.219    5.88862E-19
  9390.772    8.64171E-19
  9393.325    2.40143E-18
  9395.878    1.25682E-18
  9398.431    2.82932E-20
#  9400.984   -2.82154E-19
  9403.537    8.72952E-19
  9406.090    1.44572E-18
  9408.643    1.09669E-18
#  9411.196   -7.63568E-19
  9413.749    2.24981E-18
  9416.302    2.09944E-18
  9418.855    1.98836E-18
  9421.408    1.82876E-18
  9423.961    3.03805E-18
  9426.514    2.66148E-18
  9429.067    4.33686E-18
  9431.620    1.32560E-18
  9434.173    3.19827E-18
  9436.726    1.63054E-18
  9439.279    2.66584E-18
  9441.832    3.14637E-18
  9444.385    2.47529E-18
  9446.938    1.96744E-18
  9449.491    1.83970E-18
  9452.044    1.02705E-18
#  9454.597   -6.10129E-19
#  9457.150   -1.28628E-18
  9459.703    1.14102E-20
  9462.256    3.70979E-19
  9464.809    6.07111E-21
  9467.362    2.83029E-19
#  9469.915   -1.16937E-18
  9472.468    1.40609E-18
#  9475.021   -3.32230E-19
  9477.574    1.83223E-18
  9480.127    1.24158E-18
  9482.680    7.39438E-19
  9485.233    1.16456E-18
  9487.786    2.33319E-18
  9490.339    1.91530E-18
  9492.892    3.41919E-19
  9495.445    1.20938E-18
  9497.998    1.51505E-18
  9500.551    2.79836E-18
  9503.104    2.04932E-18
  9505.657    4.28719E-18
  9508.210    1.36192E-18
  9510.763    2.04516E-18
  9513.316    5.73136E-18
  9515.869    7.55714E-18
  9518.422    6.15826E-18
  9520.975    8.77259E-18
  9523.528    7.46280E-18
  9526.081    4.20005E-18
  9528.634    1.72641E-18
  9531.187    1.12563E-18
  9533.740    1.25330E-18
  9536.293    3.31301E-18
  9538.846    1.86573E-18
  9541.399    1.24188E-18
  9543.952    1.21410E-18
#  9546.505   -2.64846E-19
  9549.058    2.30449E-19
#  9551.611   -3.14345E-19
#  9554.164   -2.43993E-19
  9556.717    1.50382E-18
  9559.270    2.80213E-18
  9561.823    1.31489E-18
#  9564.376   -2.45446E-18
  9566.929    1.16511E-18
  9569.482    1.42012E-18
  9572.035    9.10457E-19
  9574.588    1.70991E-18
  9577.141    1.13406E-18
  9579.694    1.00144E-18
  9582.247    1.44093E-18
  9584.800    1.09440E-18
  9587.353    1.73455E-18
  9589.906    2.12843E-18
  9592.459    1.60835E-18
  9595.012    1.31086E-18
  9597.565    7.89981E-19
  9600.118    1.75343E-18
  9602.671    8.15458E-19
  9605.224    7.35168E-19
#  9607.777        0.00000
  9610.330    4.03401E-19
  9612.883    1.80252E-18
#  9615.436   -1.31468E-20
  9617.989    1.31063E-18
  9620.542    2.04372E-18
#  9623.095   -9.24743E-19
  9625.648    1.34463E-18
  9628.201    8.46510E-19
#  9630.754   -9.57765E-20
#  9633.307   -3.31510E-22
  9635.860    8.33276E-19
  9638.413    1.76933E-18
  9640.966    1.63273E-18
#  9643.519   -8.79527E-19
  9646.072    6.03121E-20
  9648.625    1.71325E-18
  9651.178    1.72498E-18
  9653.731    1.33327E-18
  9656.284    3.53039E-19
  9658.837    2.40508E-18
  9661.390    8.65234E-19
  9663.943    2.10453E-18
  9666.496    1.74744E-18
  9669.049    2.42831E-18
  9671.602    3.63609E-18
  9674.155    1.75484E-18
  9676.708    2.73833E-18
  9679.261    1.87961E-18
  9681.814    1.74603E-18
  9684.367    2.82980E-18
  9686.920    3.19091E-18
  9689.473    3.65162E-18