#|wavelength|    flux     |
  5500.000    1.47786E-18
  5502.553    1.47786E-18
  5505.106    1.47786E-18
  5507.659    5.18071E-19
  5510.212    1.75721E-18
  5512.765    2.51043E-18
#  5515.318   -5.94676E-19
  5517.871    3.19826E-18
  5520.424    1.32159E-18
  5522.977    3.66723E-18
  5525.530    1.46862E-18
  5528.083    2.36672E-18
  5530.636    2.61295E-18
  5533.189    2.24534E-18
  5535.742    1.65903E-18
  5538.295    1.08412E-18
  5540.848    2.39757E-18
  5543.401    5.05462E-19
  5545.954    2.24347E-18
  5548.507    3.08601E-18
  5551.060    4.09366E-18
  5553.613    3.15916E-18
  5556.166    2.77751E-18
  5558.719    1.76712E-18
  5561.272    4.38973E-18
  5563.825    3.99388E-18
  5566.378    1.91072E-18
  5568.931    2.90954E-18
  5571.484    2.89845E-18
  5574.037    2.35847E-18
  5576.590    4.89010E-18
  5579.143    1.94716E-18
  5581.696    3.82799E-18
  5584.249    2.58709E-18
  5586.802    2.27871E-18
  5589.355    2.25141E-18
  5591.908    8.88594E-19
  5594.461    1.82903E-18
  5597.014    2.46812E-18
  5599.567    2.09351E-18
  5602.120    2.37071E-18
  5604.673    2.72224E-18
  5607.226    3.04885E-18
  5609.779    2.36049E-18
  5612.332    2.27710E-18
  5614.885    1.96775E-18
  5617.438    1.88981E-18
  5619.991    2.56144E-18
  5622.544    1.07827E-18
  5625.097    1.96681E-18
  5627.650    2.84900E-20
  5630.203    2.64594E-18
  5632.756    1.63893E-18
  5635.309    3.06056E-18
  5637.862    2.48621E-18
  5640.415    2.73727E-18
  5642.968    2.84929E-18
  5645.521    2.88297E-18
  5648.074    3.19049E-18
  5650.627    2.61530E-18
  5653.180    1.51929E-18
  5655.733    2.50232E-18
  5658.286    2.54621E-18
  5660.839    3.49851E-18
  5663.392    4.36164E-18
  5665.945    2.51609E-18
  5668.498    3.01693E-18
  5671.051    4.26440E-18
  5673.604    3.10809E-18
  5676.157    3.62059E-18
  5678.710    3.29576E-18
  5681.263    2.44414E-18
  5683.816    3.24882E-18
  5686.369    2.85567E-18
  5688.922    2.24442E-18
  5691.475    1.97527E-18
  5694.028    3.61662E-18
  5696.581    3.77269E-18
  5699.134    2.93708E-18
  5701.687    3.80176E-18
  5704.240    3.31480E-18
  5706.793    3.19634E-18
  5709.346    3.18028E-18
  5711.899    2.68470E-18
  5714.452    1.94368E-18
  5717.005    2.78565E-18
  5719.558    2.48055E-18
  5722.111    2.31170E-18
  5724.664    3.56124E-18
  5727.217    2.74872E-18
  5729.770    2.25864E-18
  5732.323    1.45950E-18
  5734.876    2.25384E-18
  5737.429    4.63581E-19
  5739.982    1.83956E-18
  5742.535    3.12306E-18
  5745.088    2.02598E-18
  5747.641    1.73874E-18
  5750.194    1.52795E-18
  5752.747    1.94501E-18
  5755.300    1.90355E-18
  5757.853    2.55749E-18
  5760.406    2.05592E-18
  5762.959    1.93712E-18
  5765.512    2.06601E-18
  5768.065    2.07780E-18
  5770.618    2.42059E-18
  5773.171    2.86405E-18
  5775.724    3.33189E-18
  5778.277    2.68145E-18
  5780.830    2.53987E-18
  5783.383    2.99207E-18
  5785.936    2.69780E-18
  5788.489    2.43385E-18
  5791.042    2.46897E-18
  5793.595    3.01858E-18
  5796.148    3.52441E-18
  5798.701    2.29374E-18
  5801.254    2.44940E-18
  5803.807    3.49080E-18
  5806.360    2.61950E-18
  5808.913    2.62679E-18
  5811.466    3.15814E-18
  5814.019    2.76186E-18
  5816.572    2.11004E-18
  5819.125    2.78941E-18
  5821.678    3.19489E-18
  5824.231    2.45359E-18
  5826.784    3.39604E-18
  5829.337    3.39338E-18
  5831.890    1.86650E-18
  5834.443    2.05397E-18
  5836.996    2.95929E-18
  5839.549    3.04485E-18
  5842.102    2.65545E-18
  5844.655    3.35553E-18
  5847.208    3.72865E-18
  5849.761    3.09575E-18
  5852.314    3.29883E-18
  5854.867    3.76831E-18
  5857.420    3.41267E-18
  5859.973    3.23271E-18
  5862.526    4.05443E-18
  5865.079    4.33425E-18
  5867.632    4.45066E-18
  5870.185    2.97589E-18
  5872.738    3.41776E-18
  5875.291    2.60781E-18
  5877.844    3.65349E-18
  5880.397    2.55691E-18
  5882.950    4.36381E-18
  5885.503    2.26975E-18
  5888.056    5.16639E-19
  5890.609    1.41294E-18
  5893.162    6.75117E-19
  5895.715    1.93814E-18
  5898.268    6.90658E-19
  5900.821    1.15049E-18
  5903.374    1.96084E-18
  5905.927    1.33283E-18
  5908.480    2.15595E-18
  5911.033    1.99136E-18
  5913.586    2.69277E-18
  5916.139    3.22419E-18
  5918.692    3.47667E-18
  5921.245    3.14749E-18
  5923.798    4.07799E-18
  5926.351    4.08589E-18
  5928.904    3.22796E-18
  5931.457    3.76743E-18
  5934.010    3.08543E-18
  5936.563    2.65269E-18
  5939.116    2.94831E-18
  5941.669    2.67673E-18
  5944.222    2.93660E-18
  5946.775    1.62096E-19
  5949.328    7.22534E-19
  5951.881    2.51018E-18
  5954.434    2.11612E-18
  5956.987    2.90918E-18
  5959.540    2.90073E-18
  5962.093    3.34615E-18
  5964.646    2.72465E-18
  5967.199    3.98731E-18
  5969.752    4.65820E-18
  5972.305    3.31815E-18
  5974.858    4.26307E-18
  5977.411    4.56853E-18
  5979.964    3.99250E-18
  5982.517    4.07192E-18
  5985.070    4.26321E-18
  5987.623    5.00699E-18
  5990.176    5.20299E-18
  5992.729    5.58397E-18
  5995.282    4.96017E-18
  5997.835    4.24010E-18
  6000.388    4.54535E-18
  6002.941    4.68625E-18
  6005.494    4.93797E-18
  6008.047    4.38727E-18
  6010.600    4.45504E-18
  6013.153    4.31013E-18
  6015.706    4.51030E-18
  6018.259    5.04453E-18
  6020.812    4.92139E-18
  6023.365    4.68542E-18
  6025.918    4.84816E-18
  6028.471    5.18912E-18
  6031.024    5.07250E-18
  6033.577    4.68976E-18
  6036.130    4.36912E-18
  6038.683    4.79346E-18
  6041.236    4.08380E-18
  6043.789    5.01965E-18
  6046.342    4.65321E-18
  6048.895    4.67169E-18
  6051.448    4.86743E-18
  6054.001    4.37584E-18
  6056.554    4.56320E-18
  6059.107    5.20929E-18
  6061.660    5.32158E-18
  6064.213    4.65270E-18
  6066.766    4.85538E-18
  6069.319    4.80460E-18
  6071.872    4.33120E-18
  6074.425    4.43850E-18
  6076.978    5.03182E-18
  6079.531    4.56297E-18
  6082.084    4.24600E-18
  6084.637    4.67485E-18
  6087.190    4.31733E-18
  6089.743    4.98305E-18
  6092.296    4.82817E-18
  6094.849    4.83256E-18
  6097.402    3.92957E-18
  6099.955    4.40790E-18
  6102.508    4.32664E-18
  6105.061    4.61865E-18
  6107.614    4.91339E-18
  6110.167    4.99946E-18
  6112.720    4.98317E-18
  6115.273    4.39533E-18
  6117.826    4.91280E-18
  6120.379    5.10322E-18
  6122.932    4.77353E-18
  6125.485    5.43457E-18
  6128.038    4.77527E-18
  6130.591    4.54808E-18
  6133.144    4.69084E-18
  6135.697    5.26848E-18
  6138.250    4.36310E-18
  6140.803    4.25533E-18
  6143.356    4.42600E-18
  6145.909    4.97898E-18
  6148.462    4.82933E-18
  6151.015    3.76722E-18
  6153.568    4.03937E-18
  6156.121    4.26004E-18
  6158.674    5.60397E-18
  6161.227    4.70671E-18
  6163.780    4.00748E-18
  6166.333    4.49366E-18
  6168.886    5.42339E-18
  6171.439    5.06789E-18
  6173.992    4.20650E-18
  6176.545    4.63638E-18
  6179.098    4.51463E-18
  6181.651    4.55885E-18
  6184.204    4.76380E-18
  6186.757    4.94656E-18
  6189.310    4.98971E-18
  6191.863    4.31668E-18
  6194.416    4.82671E-18
  6196.969    5.00517E-18
  6199.522    4.91892E-18
  6202.075    4.36035E-18
  6204.628    4.85056E-18
  6207.181    4.06273E-18
  6209.734    4.12078E-18
  6212.287    4.32776E-18
  6214.840    4.99905E-18
  6217.393    4.66338E-18
  6219.946    4.63225E-18
  6222.499    5.11819E-18
  6225.052    4.65304E-18
  6227.605    4.29703E-18
  6230.158    3.90186E-18
  6232.711    4.19922E-18
  6235.264    4.53662E-18
  6237.817    4.66611E-18
  6240.370    5.29287E-18
  6242.923    5.16153E-18
  6245.476    4.94126E-18
  6248.029    4.23820E-18
  6250.582    5.34091E-18
  6253.135    4.57787E-18
  6255.688    4.19261E-18
  6258.241    4.44276E-18
  6260.794    5.08736E-18
  6263.347    4.33404E-18
  6265.900    4.63143E-18
  6268.453    3.97202E-18
  6271.006    4.95818E-18
  6273.559    5.36482E-18
  6276.112    4.56208E-18
  6278.665    4.31686E-18
  6281.218    4.18378E-18
  6283.771    4.26157E-18
  6286.324    4.07546E-18
  6288.877    3.78160E-18
  6291.430    4.23144E-18
  6293.983    5.10375E-18
  6296.536    4.54932E-18
  6299.089    4.41749E-18
  6301.642    4.78050E-18
  6304.195    3.87443E-18
  6306.748    4.47224E-18
  6309.301    5.48925E-18
  6311.854    4.49685E-18
  6314.407    4.79455E-18
  6316.960    4.95541E-18
  6319.513    5.14339E-18
  6322.066    5.83197E-18
  6324.619    4.76393E-18
  6327.172    5.50599E-18
  6329.725    5.75575E-18
  6332.278    5.14113E-18
  6334.831    4.60426E-18
  6337.384    5.06940E-18
  6339.937    4.80233E-18
  6342.490    5.32776E-18
  6345.043    5.42365E-18
  6347.596    4.72997E-18
  6350.149    5.24728E-18
  6352.702    4.25865E-18
  6355.255    4.83801E-18
  6357.808    6.20508E-18
  6360.361    3.87303E-18
  6362.914    5.72190E-18
  6365.467    5.46553E-18
  6368.020    6.63914E-18
  6370.573    5.08378E-18
  6373.126    4.78458E-18
  6375.679    5.17733E-18
  6378.232    5.19876E-18
  6380.785    5.93905E-18
  6383.338    5.98188E-18
  6385.891    4.21515E-18
  6388.444    7.04664E-18
  6390.997    5.12603E-18
  6393.550    5.03223E-18
  6396.103    5.03490E-18
  6398.656    5.56174E-18
  6401.209    5.18324E-18
  6403.762    4.61842E-18
  6406.315    4.75541E-18
  6408.868    5.38775E-18
  6411.421    4.96329E-18
  6413.974    4.63419E-18
  6416.527    4.38724E-18
  6419.080    5.19779E-18
  6421.633    4.51645E-18
  6424.186    4.71193E-18
  6426.739    5.81431E-18
  6429.292    5.19288E-18
  6431.845    4.92424E-18
  6434.398    4.73685E-18
  6436.951    4.51923E-18
  6439.504    4.74124E-18
  6442.057    4.56689E-18
  6444.610    4.35360E-18
  6447.163    4.01180E-18
  6449.716    3.60389E-18
  6452.269    3.72304E-18
  6454.822    3.46005E-18
  6457.375    3.59127E-18
  6459.928    3.63906E-18
  6462.481    3.96388E-18
  6465.034    4.84575E-18
  6467.587    5.81276E-18
  6470.140    4.67690E-18
  6472.693    5.72969E-18
  6475.246    5.74207E-18
  6477.799    6.14008E-18
  6480.352    5.29983E-18
  6482.905    5.30249E-18
  6485.458    5.41835E-18
  6488.011    5.68834E-18
  6490.564    4.92390E-18
  6493.117    5.89237E-18
  6495.670    6.29885E-18
  6498.223    7.02128E-18
  6500.776    5.70691E-18
  6503.329    5.72355E-18
  6505.882    5.68953E-18
  6508.435    4.42981E-18
  6510.988    5.65407E-18
  6513.541    5.23712E-18
  6516.094    5.41535E-18
  6518.647    5.54748E-18
  6521.200    6.72899E-18
  6523.753    5.21630E-18
  6526.306    6.53529E-18
  6528.859    5.64747E-18
  6531.412    5.37321E-18
  6533.965    5.80360E-18
  6536.518    6.49558E-18
  6539.071    6.42611E-18
  6541.624    6.70432E-18
  6544.177    6.12219E-18
  6546.730    5.52324E-18
  6549.283    4.15831E-18
  6551.836    5.22258E-18
  6554.389    5.63138E-18
  6556.942    5.68403E-18
  6559.495    5.76488E-18
  6562.048    5.69741E-18
  6564.601    5.16504E-18
  6567.154    3.82353E-18
  6569.707    5.91824E-18
  6572.260    5.44988E-18
  6574.813    4.32963E-18
  6577.366    5.98117E-18
  6579.919    5.13041E-18
  6582.472    5.31403E-18
  6585.025    5.26254E-18
  6587.578    5.12610E-18
  6590.131    5.07817E-18
  6592.684    5.32556E-18
  6595.237    5.84263E-18
  6597.790    6.21887E-18
  6600.343    6.07203E-18
  6602.896    5.30252E-18
  6605.449    5.55651E-18
  6608.002    5.36196E-18
  6610.555    5.41455E-18
  6613.108    5.34170E-18
  6615.661    5.53099E-18
  6618.214    5.66715E-18
  6620.767    6.30048E-18
  6623.320    6.53114E-18
  6625.873    5.95384E-18
  6628.426    6.47691E-18
  6630.979    5.92023E-18
  6633.532    6.93172E-18
  6636.085    5.72250E-18
  6638.638    6.82264E-18
  6641.191    6.74838E-18
  6643.744    5.61443E-18
  6646.297    6.46445E-18
  6648.850    6.02776E-18
  6651.403    5.64325E-18
  6653.956    6.28456E-18
  6656.509    6.48073E-18
  6659.062    5.95697E-18
  6661.615    6.28809E-18
  6664.168    6.82313E-18
  6666.721    6.30071E-18
  6669.274    6.70703E-18
  6671.827    6.80374E-18
  6674.380    6.39794E-18
  6676.933    6.65369E-18
  6679.486    6.18031E-18
  6682.039    6.26792E-18
  6684.592    5.92507E-18
  6687.145    6.43202E-18
  6689.698    5.83413E-18
  6692.251    6.26507E-18
  6694.804    6.51803E-18
  6697.357    6.60018E-18
  6699.910    6.57472E-18
  6702.463    6.55219E-18
  6705.016    6.39350E-18
  6707.569    6.81714E-18
  6710.122    6.35480E-18
  6712.675    6.31377E-18
  6715.228    6.30926E-18
  6717.781    6.32258E-18
  6720.334    6.87552E-18
  6722.887    6.59511E-18
  6725.440    6.68557E-18
  6727.993    7.07794E-18
  6730.546    6.70283E-18
  6733.099    6.45380E-18
  6735.652    5.96946E-18
  6738.205    6.74441E-18
  6740.758    6.06231E-18
  6743.311    6.79608E-18
  6745.864    6.71658E-18
  6748.417    6.86595E-18
  6750.970    7.41241E-18
  6753.523    7.17317E-18
  6756.076    6.75773E-18
  6758.629    7.63033E-18
  6761.182    7.51843E-18
  6763.735    6.97810E-18
  6766.288    6.40206E-18
  6768.841    6.96171E-18
  6771.394    6.59807E-18
  6773.947    6.77896E-18
  6776.500    7.07886E-18
  6779.053    7.42556E-18
  6781.606    6.52842E-18
  6784.159    7.62390E-18
  6786.712    6.67582E-18
  6789.265    6.50081E-18
  6791.818    5.62965E-18
  6794.371    6.53497E-18
  6796.924    6.17635E-18
  6799.477    6.65293E-18
  6802.030    6.71262E-18
  6804.583    6.98350E-18
  6807.136    6.39704E-18
  6809.689    7.07988E-18
  6812.242    7.28786E-18
  6814.795    7.44845E-18
  6817.348    7.51787E-18
  6819.901    7.13998E-18
  6822.454    6.62948E-18
  6825.007    7.71071E-18
  6827.560    6.80649E-18
  6830.113    6.76254E-18
  6832.666    7.37657E-18
  6835.219    7.11405E-18
  6837.772    7.32966E-18
  6840.325    8.29352E-18
  6842.878    7.65053E-18
  6845.431    8.06031E-18
  6847.984    7.29485E-18
  6850.537    7.25717E-18
  6853.090    7.99621E-18
  6855.643    5.84392E-18
  6858.196    6.88684E-18
  6860.749    6.75698E-18
  6863.302    6.63729E-18
  6865.855    8.26656E-18
  6868.408    7.05626E-18
  6870.961    7.52387E-18
  6873.514    7.30466E-18
  6876.067    6.13718E-18
  6878.620    6.50467E-18
  6881.173    7.93262E-18
  6883.726    7.12162E-18
  6886.279    7.83283E-18
  6888.832    6.92919E-18
  6891.385    6.33760E-18
  6893.938    7.04867E-18
  6896.491    7.85146E-18
  6899.044    6.10151E-18
  6901.597    7.42551E-18
  6904.150    6.95434E-18
  6906.703    7.12377E-18
  6909.256    7.71991E-18
  6911.809    7.52541E-18
  6914.362    8.02053E-18
  6916.915    7.56516E-18
  6919.468    8.48532E-18
  6922.021    8.85727E-18
  6924.574    7.67762E-18
  6927.127    7.63072E-18
  6929.680    8.23046E-18
  6932.233    8.05475E-18
  6934.786    8.91101E-18
  6937.339    6.85573E-18
  6939.892    8.18091E-18
  6942.445    8.05141E-18
  6944.998    8.19971E-18
  6947.551    7.10105E-18
  6950.104    7.07723E-18
  6952.657    7.00715E-18
  6955.210    7.10170E-18
  6957.763    6.69870E-18
  6960.316    6.35599E-18
  6962.869    7.44449E-18
  6965.422    6.36735E-18
  6967.975    6.55443E-18
  6970.528    7.38191E-18
  6973.081    6.98273E-18
  6975.634    6.97643E-18
  6978.187    7.25160E-18
  6980.740    7.49497E-18
  6983.293    7.26265E-18
  6985.846    7.27531E-18
  6988.399    7.34622E-18
  6990.952    7.23054E-18
  6993.505    6.38897E-18
  6996.058    6.01288E-18
  6998.611    7.27825E-18
  7001.164    5.95751E-18
  7003.717    6.75788E-18
  7006.270    6.81225E-18
  7008.823    7.11680E-18
  7011.376    6.46382E-18
  7013.929    6.94076E-18
  7016.482    7.18534E-18
  7019.035    6.58712E-18
  7021.588    6.31980E-18
  7024.141    7.11292E-18
  7026.694    7.16595E-18
  7029.247    5.98656E-18
  7031.800    6.89935E-18
  7034.353    7.48299E-18
  7036.906    7.42236E-18
  7039.459    6.95257E-18
  7042.012    7.87161E-18
  7044.565    6.52182E-18
  7047.118    6.97073E-18
  7049.671    6.41390E-18
  7052.224    7.02985E-18
  7054.777    7.06447E-18
  7057.330    6.53538E-18
  7059.883    5.58971E-18
  7062.436    6.18044E-18
  7064.989    6.39581E-18
  7067.542    6.60990E-18
  7070.095    6.64282E-18
  7072.648    6.64211E-18
  7075.201    6.81203E-18
  7077.754    7.27591E-18
  7080.307    6.12082E-18
  7082.860    6.52091E-18
  7085.413    6.69303E-18
  7087.966    6.74648E-18
  7090.519    6.72622E-18
  7093.072    7.26837E-18
  7095.625    6.76765E-18
  7098.178    6.76738E-18
  7100.731    7.14057E-18
  7103.284    7.44631E-18
  7105.837    6.97138E-18
  7108.390    7.16120E-18
  7110.943    7.22985E-18
  7113.496    6.80990E-18
  7116.049    6.40475E-18
  7118.602    6.86239E-18
  7121.155    7.05159E-18
  7123.708    6.88467E-18
  7126.261    6.75815E-18
  7128.814    6.97464E-18
  7131.367    7.40688E-18
  7133.920    7.68613E-18
  7136.473    6.47398E-18
  7139.026    6.61768E-18
  7141.579    6.75400E-18
  7144.132    7.05675E-18
  7146.685    7.30646E-18
  7149.238    7.52581E-18
  7151.791    7.39509E-18
  7154.344    7.59479E-18
  7156.897    7.82689E-18
  7159.450    7.30113E-18
  7162.003    7.12417E-18
  7164.556    7.59726E-18
  7167.109    7.25723E-18
  7169.662    6.53947E-18
  7172.215    6.87910E-18
  7174.768    7.50298E-18
  7177.321    7.12996E-18
  7179.874    6.42020E-18
  7182.427    7.48118E-18
  7184.980    7.55157E-18
  7187.533    7.33270E-18
  7190.086    8.17379E-18
  7192.639    7.63180E-18
  7195.192    7.78124E-18
  7197.745    7.37445E-18
  7200.298    7.81713E-18
  7202.851    6.87608E-18
  7205.404    7.04727E-18
  7207.957    7.23250E-18
  7210.510    6.85195E-18
  7213.063    7.37928E-18
  7215.616    7.27851E-18
  7218.169    7.06177E-18
  7220.722    7.30208E-18
  7223.275    7.38408E-18
  7225.828    7.49507E-18
  7228.381    7.12023E-18
  7230.934    6.80898E-18
  7233.487    7.63560E-18
  7236.040    6.89730E-18
  7238.593    5.56746E-18
  7241.146    6.44853E-18
  7243.699    7.21197E-18
  7246.252    6.88779E-18
  7248.805    5.30845E-18
  7251.358    7.21191E-18
  7253.911    6.43735E-18
  7256.464    6.01033E-18
  7259.017    6.27721E-18
  7261.570    5.98367E-18
  7264.123    6.72733E-18
  7266.676    7.50461E-18
  7269.229    6.77441E-18
  7271.782    5.65271E-18
  7274.335    6.44740E-18
  7276.888    5.57436E-18
  7279.441    6.07940E-18
  7281.994    5.07031E-18
  7284.547    6.39073E-18
  7287.100    4.22959E-18
  7289.653    4.40440E-18
  7292.206    5.36332E-18
  7294.759    5.77697E-18
  7297.312    5.37191E-18
  7299.865    6.48783E-18
  7302.418    6.29290E-18
  7304.971    5.18693E-18
  7307.524    7.56062E-18
  7310.077    7.59750E-18
  7312.630    6.66627E-18
  7315.183    6.54181E-18
  7317.736    6.03929E-18
  7320.289    6.13669E-18
  7322.842    6.48333E-18
  7325.395    6.78318E-18
  7327.948    6.55664E-18
  7330.501    6.58985E-18
  7333.054    6.18280E-18
  7335.607    6.94499E-18
  7338.160    7.25552E-18
  7340.713    6.31414E-18
  7343.266    7.75549E-18
  7345.819    6.67692E-18
  7348.372    7.34971E-18
  7350.925    7.01949E-18
  7353.478    7.48726E-18
  7356.031    7.38901E-18
  7358.584    7.96602E-18
  7361.137    8.82400E-18
  7363.690    7.49267E-18
  7366.243    7.83552E-18
  7368.796    7.61099E-18
  7371.349    6.20539E-18
  7373.902    6.42022E-18
  7376.455    7.78444E-18
  7379.008    6.77758E-18
  7381.561    6.31920E-18
  7384.114    7.03371E-18
  7386.667    6.62760E-18
  7389.220    7.39901E-18
  7391.773    7.45384E-18
  7394.326    7.00853E-18
  7396.879    6.93650E-18
  7399.432    7.51176E-18
  7401.985    7.16492E-18
  7404.538    8.59310E-18
  7407.091    7.60992E-18
  7409.644    7.55316E-18
  7412.197    7.36271E-18
  7414.750    7.42949E-18
  7417.303    7.26878E-18
  7419.856    6.57667E-18
  7422.409    8.70834E-18
  7424.962    8.04769E-18
  7427.515    6.44561E-18
  7430.068    8.33968E-18
  7432.621    7.82786E-18
  7435.174    6.82638E-18
  7437.727    6.88453E-18
  7440.280    7.72190E-18
  7442.833    7.27888E-18
  7445.386    6.10075E-18
  7447.939    7.48385E-18
  7450.492    7.01457E-18
  7453.045    5.47999E-18
  7455.598    7.73047E-18
  7458.151    7.20486E-18
  7460.704    6.47253E-18
  7463.257    6.35977E-18
  7465.810    6.63706E-18
  7468.363    6.04024E-18
  7470.916    6.90511E-18
  7473.469    7.15829E-18
  7476.022    6.12030E-18
  7478.575    5.58576E-18
  7481.128    7.41291E-18
  7483.681    6.99605E-18
  7486.234    7.25008E-18
  7488.787    7.40779E-18
  7491.340    7.03258E-18
  7493.893    6.70990E-18
  7496.446    6.43199E-18
  7498.999    6.06938E-18
  7501.552    6.03366E-18
  7504.105    6.72275E-18
  7506.658    6.47573E-18
  7509.211    6.52276E-18
  7511.764    7.26802E-18
  7514.317    7.54509E-18
  7516.870    7.57094E-18
  7519.423    9.83404E-18
  7521.976    8.17915E-18
  7524.529    8.21089E-18
  7527.082    6.40409E-18
  7529.635    4.27089E-18
  7532.188    5.28325E-18
  7534.741    6.28264E-18
  7537.294    7.30349E-18
  7539.847    6.03841E-18
  7542.400    6.60928E-18
  7544.953    6.94352E-18
  7547.506    7.58107E-18
  7550.059    7.74450E-18
  7552.612    6.35881E-18
  7555.165    6.37958E-18
  7557.718    6.28500E-18
  7560.271    6.57546E-18
  7562.824    6.83639E-18
  7565.377    6.30848E-18
  7567.930    5.80138E-18
  7570.483    6.41970E-18
  7573.036    6.84435E-18
  7575.589    6.12839E-18
  7578.142    7.19803E-18
  7580.695    7.39563E-18
  7583.248    7.19161E-18
  7585.801    7.32909E-18
  7588.354    7.39272E-18
  7590.907    5.95999E-18
  7593.460    6.39800E-18
  7596.013    6.59730E-18
  7598.566    6.44336E-18
  7601.119    7.92310E-18
  7603.672    9.58007E-18
  7606.225    7.51020E-18
  7608.778    8.90332E-18
  7611.331    7.83579E-18
  7613.884    8.42496E-18
  7616.437    9.21639E-18
  7618.990    6.88482E-18
  7621.543    7.14269E-18
  7624.096    4.99065E-18
  7626.649    5.40998E-18
  7629.202    5.74288E-18
  7631.755    6.84194E-18
  7634.308    6.99465E-18
  7636.861    6.94400E-18
  7639.414    7.60401E-18
  7641.967    6.68685E-18
  7644.520    6.98021E-18
  7647.073    7.34895E-18
  7649.626    7.95632E-18
  7652.179    7.73607E-18
  7654.732    7.23479E-18
  7657.285    6.47885E-18
  7659.838    6.70809E-18
  7662.391    6.69606E-18
  7664.944    7.05824E-18
  7667.497    6.77005E-18
  7670.050    6.64313E-18
  7672.603    7.01813E-18
  7675.156    7.21543E-18
  7677.709    7.31704E-18
  7680.262    7.43327E-18
  7682.815    7.19509E-18
  7685.368    7.00916E-18
  7687.921    7.19543E-18
  7690.474    6.24592E-18
  7693.027    7.12544E-18
  7695.580    7.28213E-18
  7698.133    7.16243E-18
  7700.686    7.54984E-18
  7703.239    6.88366E-18
  7705.792    6.40007E-18
  7708.345    6.74180E-18
  7710.898    4.69246E-18
  7713.451    4.85857E-18
  7716.004    6.21959E-18
  7718.557    6.98409E-18
  7721.110    6.25148E-18
  7723.663    6.32669E-18
  7726.216    7.54163E-18
  7728.769    8.37704E-18
  7731.322    7.54425E-18
  7733.875    7.67054E-18
  7736.428    6.53031E-18
  7738.981    8.28265E-18
  7741.534    5.59331E-18
  7744.087    5.51095E-18
  7746.640    4.73465E-18
  7749.193    3.80081E-18
  7751.746    5.87235E-18
  7754.299    4.78206E-18
  7756.852    4.22819E-18
  7759.405    6.05002E-18
  7761.958    5.66502E-18
  7764.511    6.25426E-18
  7767.064    6.32159E-18
  7769.617    6.82624E-18
  7772.170    6.72002E-18
  7774.723    6.12207E-18
  7777.276    7.14307E-18
  7779.829    5.82074E-18
  7782.382    6.88781E-18
  7784.935    5.75912E-18
  7787.488    6.52263E-18
  7790.041    5.49145E-18
  7792.594    4.32045E-18
  7795.147    4.65048E-18
  7797.700    6.50532E-18
  7800.253    5.57877E-18
  7802.806    5.66032E-18
  7805.359    6.83245E-18
  7807.912    5.69100E-18
  7810.465    7.19882E-18
  7813.018    9.07025E-18
  7815.571    7.38247E-18
  7818.124    9.25922E-18
  7820.677    8.65862E-18
  7823.230    7.32876E-18
  7825.783    8.69793E-18
  7828.336    8.12064E-18
  7830.889    6.81662E-18
  7833.442    5.33056E-18
  7835.995    4.92354E-18
  7838.548    5.41063E-18
  7841.101    5.60732E-18
  7843.654    5.66825E-18
  7846.207    4.30946E-18
  7848.760    7.22579E-18
  7851.313    7.60838E-18
  7853.866    4.60316E-18
  7856.419    7.51412E-18
  7858.972    7.50750E-18
  7861.525    8.56648E-18
  7864.078    9.35999E-18
  7866.631    9.22964E-18
  7869.184    1.08539E-17
  7871.737    7.57584E-18
  7874.290    7.68050E-18
  7876.843    8.96384E-18
  7879.396    6.08338E-18
  7881.949    6.99384E-18
  7884.502    5.58651E-18
  7887.055    4.88905E-18
  7889.608    6.02209E-18
  7892.161    5.85771E-18
  7894.714    6.10609E-18
  7897.267    6.20562E-18
  7899.820    5.66059E-18
  7902.373    6.65392E-18
  7904.926    6.95928E-18
  7907.479    7.43756E-18
  7910.032    8.75827E-18
  7912.585    6.58675E-18
  7915.138    7.38704E-18
  7917.691    8.34789E-18
  7920.244    6.34108E-18
  7922.797    4.10711E-18
  7925.350    6.77514E-18
  7927.903    6.28446E-18
  7930.456    5.80627E-18
  7933.009    6.66637E-18
  7935.562    6.59729E-18
  7938.115    7.84729E-18
  7940.668    7.58886E-18
  7943.221    9.44675E-18
  7945.774    6.55902E-18
  7948.327    8.11157E-18
  7950.880    8.05823E-18
  7953.433    7.65092E-18
  7955.986    7.13158E-18
  7958.539    6.66046E-18
  7961.092    6.93853E-18
  7963.645    3.93010E-18
  7966.198    5.45263E-18
  7968.751    5.87905E-18
  7971.304    7.26912E-18
  7973.857    8.77139E-18
  7976.410    7.04894E-18
  7978.963    8.47002E-18
  7981.516    1.07078E-17
  7984.069    8.64171E-18
  7986.622    8.73682E-18
  7989.175    6.78726E-18
  7991.728    6.97279E-18
  7994.281    7.59226E-18
  7996.834    6.59367E-18
  7999.387    5.67602E-18
  8001.940    5.97120E-18
  8004.493    6.00498E-18
  8007.046    7.97476E-18
  8009.599    7.44116E-18
  8012.152    9.17884E-18
  8014.705    7.73037E-18
  8017.258    1.03527E-17
  8019.811    7.74682E-18
  8022.364    6.75853E-18
  8024.917    7.54875E-18
  8027.470    5.45159E-18
  8030.023    7.14825E-18
  8032.576    6.16380E-18
  8035.129    6.43678E-18
  8037.682    8.09687E-18
  8040.235    7.81968E-18
  8042.788    9.68736E-18
  8045.341    8.89067E-18
  8047.894    8.45962E-18
  8050.447    7.60313E-18
  8053.000    7.27748E-18
  8055.553    6.70381E-18
  8058.106    4.57652E-18
  8060.659    6.08401E-18
  8063.212    5.17976E-18
  8065.765    5.93337E-18
  8068.318    7.67399E-18
  8070.871    8.40096E-18
  8073.424    8.04952E-18
  8075.977    8.46445E-18
  8078.530    7.38120E-18
  8081.083    6.90831E-18
  8083.636    7.05709E-18
  8086.189    5.74092E-18
  8088.742    4.98318E-18
  8091.295    6.24708E-18
  8093.848    5.58761E-18
  8096.401    7.42164E-18
  8098.954    5.73448E-18
  8101.507    6.84163E-18
  8104.060    6.79861E-18
  8106.613    7.78341E-18
  8109.166    7.68804E-18
  8111.719    8.09953E-18
  8114.272    7.79564E-18
  8116.825    6.11546E-18
  8119.378    7.45495E-18
  8121.931    7.00490E-18
  8124.484    6.23660E-18
  8127.037    7.10648E-18
  8129.590    6.84888E-18
  8132.143    6.89195E-18
  8134.696    7.02324E-18
  8137.249    7.19937E-18
  8139.802    6.69074E-18
  8142.355    8.00701E-18
  8144.908    6.29953E-18
  8147.461    5.43779E-18
  8150.014    6.87587E-18
  8152.567    6.24256E-18
  8155.120    6.25225E-18
  8157.673    5.80903E-18
  8160.226    6.28976E-18
  8162.779    6.21383E-18
  8165.332    6.56279E-18
  8167.885    6.37068E-18
  8170.438    7.47599E-18
  8172.991    6.29268E-18
  8175.544    6.59495E-18
  8178.097    7.86070E-18
  8180.650    7.53722E-18
  8183.203    8.07595E-18
  8185.756    7.40788E-18
  8188.309    7.25296E-18
  8190.862    7.35324E-18
  8193.415    7.02253E-18
  8195.968    6.01039E-18
  8198.521    4.93604E-18
  8201.074    6.35407E-18
  8203.627    5.20527E-18
  8206.180    6.39445E-18
  8208.733    6.38451E-18
  8211.286    6.07147E-18
  8213.839    7.68499E-18
  8216.392    6.56906E-18
  8218.945    7.21571E-18
  8221.498    6.91943E-18
  8224.051    6.69923E-18
  8226.604    6.95218E-18
  8229.157    7.86507E-18
  8231.710    8.08106E-18
  8234.263    8.26611E-18
  8236.816    7.99218E-18
  8239.369    8.13085E-18
  8241.922    9.16768E-18
  8244.475    8.15777E-18
  8247.028    9.19116E-18
  8249.581    7.19640E-18
  8252.134    7.70947E-18
  8254.687    7.15725E-18
  8257.240    7.28913E-18
  8259.793    7.38838E-18
  8262.346    7.90969E-18
  8264.899    7.48680E-18
  8267.452    7.57866E-18
  8270.005    8.23818E-18
  8272.558    8.52562E-18
  8275.111    7.35020E-18
  8277.664    6.88155E-18
  8280.217    5.50745E-18
  8282.770    4.51140E-18
  8285.323    9.56121E-18
  8287.876    8.39507E-18
  8290.429    8.42421E-18
  8292.982    9.73173E-18
  8295.535    7.20762E-18
  8298.088    8.87189E-18
  8300.641    9.55283E-18
  8303.194    7.61806E-18
  8305.747    6.27759E-18
  8308.300    8.39574E-18
  8310.853    1.03065E-17
  8313.406    8.18120E-18
  8315.959    7.05496E-18
  8318.512    8.09581E-18
  8321.065    7.75393E-18
  8323.618    7.05591E-18
  8326.171    7.54806E-18
  8328.724    8.35117E-18
  8331.277    6.95948E-18
  8333.830    5.14451E-18
  8336.383    5.53865E-18
  8338.936    5.64985E-18
  8341.489    5.76105E-18
  8344.042    5.87225E-18
  8346.595    5.98346E-18
  8349.148    6.09466E-18
  8351.701    6.20586E-18
  8354.254    6.31706E-18
  8356.807    5.98982E-18
  8359.360    5.64282E-18
  8361.913    6.64116E-18
  8364.466    6.06404E-18
  8367.019    5.04710E-18
  8369.572    6.33799E-18
  8372.125    6.13699E-18
  8374.678    6.48504E-18
  8377.231    6.40519E-18
  8379.784    6.66317E-18
  8382.337    7.51396E-18
  8384.890    8.22405E-18
  8387.443    8.61097E-18
  8389.996    7.40103E-18
  8392.549    7.67794E-18
  8395.102    7.51146E-18
  8397.655    9.04674E-18
  8400.208    1.03132E-17
  8402.761    6.57532E-18
  8405.314    6.03107E-18
  8407.867    5.49889E-18
  8410.420    2.39627E-18
  8412.973    3.41122E-18
  8415.526    3.47532E-18
  8418.079    6.68956E-18
  8420.632    7.03509E-18
  8423.185    7.89383E-18
  8425.738    9.50905E-18
  8428.291    1.01221E-17
  8430.844    7.69309E-18
  8433.397    8.00782E-18
  8435.950    7.65915E-18
  8438.503    4.92266E-18
  8441.056    6.85800E-18
  8443.609    3.52088E-18
  8446.162    4.56354E-18
  8448.715    4.96122E-18
  8451.268    3.28242E-18
  8453.821    5.77247E-18
  8456.374    7.28480E-18
  8458.927    6.73113E-18
  8461.480    9.72211E-18
  8464.033    9.28421E-18
  8466.586    1.01741E-17
  8469.139    9.52453E-18
  8471.692    6.98176E-18
  8474.245    6.50668E-18
  8476.798    6.79348E-18
  8479.351    5.63754E-18
  8481.904    4.49304E-18
  8484.457    5.51636E-18
  8487.010    6.10689E-18
  8489.563    6.90079E-18
  8492.116    7.04712E-18
  8494.669    7.06710E-18
  8497.222    7.58803E-18
  8499.775    9.20632E-18
  8502.328    9.15367E-18
  8504.881    7.38448E-18
  8507.434    9.29356E-18
  8509.987    7.45338E-18
  8512.540    6.99485E-18
  8515.093    6.11903E-18
  8517.646    7.28666E-18
  8520.199    6.55918E-18
  8522.752    6.11729E-18
  8525.305    5.24710E-18
  8527.858    5.61646E-18
  8530.411    5.52165E-18
  8532.964    4.96850E-18
  8535.517    6.15589E-18
  8538.070    5.60721E-18
  8540.623    6.25188E-18
  8543.176    5.72564E-18
  8545.729    7.91349E-18
  8548.282    7.48720E-18
  8550.835    1.00603E-17
  8553.388    9.31970E-18
  8555.941    8.99177E-18
  8558.494    8.54932E-18
  8561.047    8.19196E-18
  8563.600    7.67957E-18
  8566.153    9.20335E-18
  8568.706    7.66782E-18
  8571.259    6.68337E-18
  8573.812    7.04816E-18
  8576.365    7.06858E-18
  8578.918    6.44749E-18
  8581.471    5.73797E-18
  8584.024    6.20909E-18
  8586.577    5.66823E-18
  8589.130    6.51169E-18
  8591.683    7.63227E-18
  8594.236    4.86269E-18
  8596.789    7.58616E-18
  8599.342    7.60875E-18
  8601.895    8.72513E-18
  8604.448    1.06928E-17
  8607.001    9.29122E-18
  8609.554    9.18179E-18
  8612.107    9.35296E-18
  8614.660    9.27742E-18
  8617.213    8.17939E-18
  8619.766    6.24097E-18
  8622.319    7.15025E-18
  8624.872    8.02643E-18
  8627.425    7.57571E-18
  8629.978    6.88477E-18
  8632.531    6.08398E-18
  8635.084    8.89493E-18
  8637.637    7.33484E-18
  8640.190    8.84159E-18
  8642.743    9.09363E-18
  8645.296    1.00879E-17
  8647.849    1.04607E-17
  8650.402    1.00832E-17
  8652.955    1.31772E-17
  8655.508    1.07873E-17
  8658.061    9.65474E-18
  8660.614    5.07750E-18
  8663.167    5.30294E-18
  8665.720    4.50050E-18
  8668.273    6.51318E-18
  8670.826    4.93928E-18
  8673.379    6.10733E-18
  8675.932    7.83819E-18
  8678.485    8.68196E-18
  8681.038    7.40598E-18
  8683.591    9.25522E-18
  8686.144    6.76193E-18
  8688.697    8.89936E-18
  8691.250    7.61308E-18
  8693.803    5.96540E-18
  8696.356    5.54476E-18
  8698.909    5.14017E-18
  8701.462    6.41886E-18
  8704.015    7.23615E-18
  8706.568    6.64329E-18
  8709.121    9.09093E-18
  8711.674    9.47339E-18
  8714.227    8.73283E-18
  8716.780    1.04030E-17
  8719.333    1.00317E-17
  8721.886    6.03940E-18
  8724.439    6.57337E-18
  8726.992    5.26668E-18
  8729.545    6.01796E-18
  8732.098    5.03811E-18
  8734.651    6.68092E-18
  8737.204    6.94300E-18
  8739.757    7.27537E-18
  8742.310    8.15477E-18
  8744.863    7.32089E-18
  8747.416    8.14423E-18
  8749.969    5.89520E-18
  8752.522    6.21941E-18
  8755.075    8.37541E-18
  8757.628    9.18156E-18
  8760.181    9.22421E-18
  8762.734    9.26685E-18
  8765.287    9.30950E-18
  8767.840    9.35215E-18
  8770.393    9.39479E-18
  8772.946    9.43744E-18
  8775.499    9.48009E-18
  8778.052    9.52274E-18
  8780.605    9.56538E-18
  8783.158    9.60803E-18
  8785.711    8.59687E-18
  8788.264    8.49356E-18
  8790.817    7.93577E-18
  8793.370    9.06078E-18
  8795.923    8.76968E-18
  8798.476    8.47687E-18
  8801.029    1.00746E-17
  8803.582    8.23225E-18
  8806.135    8.37121E-18
  8808.688    7.93197E-18
  8811.241    7.01237E-18
  8813.794    7.07644E-18
  8816.347    1.05809E-17
  8818.900    8.42111E-18
  8821.453    7.12793E-18
  8824.006    7.04306E-18
  8826.559    6.54746E-18
  8829.112    7.46143E-18
  8831.665    7.55283E-18
  8834.218    3.77085E-18
  8836.771    2.89489E-18
  8839.324    3.24475E-18
  8841.877    4.56350E-18
  8844.430    6.76978E-18
  8846.983    8.25687E-18
  8849.536    8.38052E-18
  8852.089    7.87574E-18
  8854.642    7.90871E-18
  8857.195    1.02384E-17
  8859.748    1.01359E-17
  8862.301    1.31816E-17
  8864.854    9.90947E-18
  8867.407    1.04107E-17
  8869.960    1.00374E-17
  8872.513    1.09121E-17
  8875.066    7.66957E-18
  8877.619    6.41772E-18
  8880.172    6.70421E-18
  8882.725    8.62809E-18
  8885.278    1.20145E-17
  8887.831    1.33104E-17
  8890.384    1.11227E-17
  8892.937    7.05228E-18
  8895.490    5.50653E-18
  8898.043    1.05011E-17
  8900.596    1.04260E-17
  8903.149    9.68358E-18
  8905.702    8.97957E-18
  8908.255    7.25445E-18
  8910.808    9.06921E-18
  8913.361    1.06705E-17
  8915.914    9.59365E-18
  8918.467    7.66288E-18
  8921.020    9.59365E-18
  8923.573    9.40800E-18
  8926.126    1.02810E-17
  8928.679    7.34734E-18
  8931.232    6.63562E-18
  8933.785    6.98433E-18
  8936.338    4.34288E-18
  8938.891    5.07795E-18
  8941.444    3.29761E-18
  8943.997    4.17806E-18
  8946.550    4.44360E-18
  8949.103    6.77675E-18
  8951.656    5.54388E-18
  8954.209    6.70451E-18
  8956.762    6.64802E-18
  8959.315    5.24050E-18
  8961.868    6.16143E-18
  8964.421    6.48821E-18
  8966.974    7.36390E-18
  8969.527    6.95479E-18
  8972.080    6.75685E-18
  8974.633    8.43651E-18
  8977.186    8.60410E-18
  8979.739    8.31153E-18
  8982.292    6.45907E-18
  8984.845    5.35000E-18
  8987.398    6.42128E-18
  8989.951    8.09986E-18
  8992.504    5.60570E-18
  8995.057    5.95169E-18
  8997.610    3.23323E-18
  9000.163    4.90688E-18
  9002.716    5.52858E-18
  9005.269    2.44146E-18
  9007.822    3.53442E-18
  9010.375    5.09780E-18
  9012.928    5.98424E-18
  9015.481    5.11454E-18
  9018.034    6.35423E-18
  9020.587    5.35819E-18
  9023.140    6.11215E-18
  9025.693    8.37786E-18
  9028.246    9.26543E-18
  9030.799    7.53882E-18
  9033.352    8.72415E-18
  9035.905    7.54005E-18
  9038.458    6.79883E-18
  9041.011    6.74878E-18
  9043.564    4.61842E-18
  9046.117    5.81869E-18
  9048.670    5.92555E-18
  9051.223    4.46895E-18
  9053.776    3.70018E-18
  9056.329    6.17381E-18
  9058.882    6.92286E-18
  9061.435    6.46570E-18
  9063.988    5.09346E-18
  9066.541    7.16792E-18
  9069.094    7.28960E-18
  9071.647    6.74810E-18
  9074.200    7.04345E-18
  9076.753    6.94532E-18
  9079.306    6.22906E-18
  9081.859    8.91953E-18
  9084.412    7.20008E-18
  9086.965    6.82614E-18
  9089.518    6.68084E-18
  9092.071    4.35784E-18
  9094.624    5.51126E-18
  9097.177    2.75979E-18
  9099.730    5.34982E-18
  9102.283    4.79794E-18
  9104.836    4.72012E-18
  9107.389    5.29351E-18
  9109.942    5.97230E-18
  9112.495    5.24425E-18
  9115.048    5.35201E-18
  9117.601    7.63864E-18
  9120.154    8.28798E-18
  9122.707    6.65533E-18
  9125.260    8.07485E-18
  9127.813    7.72926E-18
  9130.366    7.29219E-18
  9132.919    6.82132E-18
  9135.472    5.83123E-18
  9138.025    6.40275E-18
  9140.578    6.09780E-18
  9143.131    5.64713E-18
  9145.684    4.45287E-18
  9148.237    2.99065E-18
  9150.790    3.88149E-18
  9153.343    3.98859E-18
  9155.896    3.79070E-18
  9158.449    3.75053E-18
  9161.002    4.47716E-18
  9163.555    4.27182E-18
  9166.108    4.83840E-18
  9168.661    5.25048E-18
  9171.214    7.24575E-18
  9173.767    7.54817E-18
  9176.320    7.01666E-18
  9178.873    7.82096E-18
  9181.426    6.86631E-18
  9183.979    7.30273E-18
  9186.532    7.28814E-18
  9189.085    6.17944E-18
  9191.638    6.26861E-18
  9194.191    5.28262E-18
  9196.744    5.80271E-18
  9199.297    3.62449E-18
  9201.850    3.69487E-18
  9204.403    3.65752E-18
  9206.956    4.45892E-18
  9209.509    4.40185E-18
  9212.062    4.51272E-18
  9214.615    6.64664E-18
  9217.168    5.56282E-18
  9219.721    6.40354E-18
  9222.274    8.33591E-18
  9224.827    7.40758E-18
  9227.380    9.28094E-18
  9229.933    6.92109E-18
  9232.486    6.01939E-18
  9235.039    7.22082E-18
  9237.592    5.59320E-18
  9240.145    6.62827E-18
  9242.698    5.79185E-18
  9245.251    4.14819E-18
  9247.804    4.23640E-18
  9250.357    4.69096E-18
  9252.910    3.11817E-18
  9255.463    3.39457E-18
  9258.016    3.62711E-18
  9260.569    4.34128E-18
  9263.122    3.49610E-18
  9265.675    6.08268E-18
  9268.228    4.87064E-18
  9270.781    6.45798E-18
  9273.334    8.16410E-18
  9275.887    6.76074E-18
  9278.440    6.33165E-18
  9280.993    5.72670E-18
  9283.546    5.93013E-18
  9286.099    3.97020E-18
  9288.652    4.87785E-18
  9291.205    3.28810E-18
  9293.758    2.65471E-18
  9296.311    2.68754E-18
  9298.864    6.08081E-18
  9301.417    6.43029E-18
  9303.970    1.13701E-18
  9306.523    3.99371E-18
  9309.076    2.89469E-18
  9311.629    5.98211E-18
  9314.182    4.78907E-18
  9316.735    1.79159E-18
  9319.288    5.43218E-18
  9321.841    6.51235E-18
  9324.394    5.64800E-18
  9326.947    6.07048E-18
  9329.500    7.04979E-18
  9332.053    4.30378E-18
  9334.606    4.58966E-18
  9337.159    3.08982E-18
  9339.712    4.01594E-18
  9342.265    4.05963E-18
  9344.818    2.74782E-18
  9347.371    4.11513E-18
  9349.924    4.41410E-18
  9352.477    1.56710E-18
  9355.030    2.88047E-18
  9357.583    3.51259E-18
  9360.136    4.92565E-18
  9362.689    4.24546E-18
  9365.242    4.32053E-18
  9367.795    3.23956E-18
  9370.348    1.28409E-18
  9372.901    1.91895E-18
  9375.454    3.64676E-18
  9378.007    2.14082E-18
  9380.560    2.47589E-18
  9383.113    4.41363E-18
  9385.666    5.28576E-18
  9388.219    4.64003E-18
  9390.772    7.50818E-18
  9393.325    7.09101E-18
  9395.878    5.18917E-18
  9398.431    4.52126E-18
  9400.984    4.86935E-18
  9403.537    4.13478E-18
  9406.090    5.56142E-18
  9408.643    4.99615E-18
  9411.196    4.58692E-18
  9413.749    2.81229E-18
  9416.302    9.26126E-18
  9418.855    8.45865E-18
  9421.408    6.07507E-18
  9423.961    5.28916E-18
  9426.514    1.99120E-18
  9429.067    2.15139E-18
  9431.620    7.65992E-18
  9434.173    4.53857E-18
  9436.726    6.46536E-18
  9439.279    7.48969E-18
  9441.832    3.18545E-18
  9444.385    2.07483E-18
  9446.938    4.70237E-18
  9449.491    4.63371E-18
  9452.044    1.71587E-18
  9454.597    4.53042E-18
  9457.150    3.75378E-18
  9459.703    1.79255E-18
  9462.256    1.53549E-18
  9464.809    3.57297E-18
  9467.362    3.84312E-18
#  9469.915   -7.04813E-19
  9472.468    6.09537E-18
  9475.021    4.29680E-18
#  9477.574   -4.63813E-19
  9480.127    4.54462E-18
  9482.680    5.51428E-18
  9485.233    6.56695E-18
  9487.786    4.46778E-18
  9490.339    3.39277E-18
  9492.892    5.61837E-18
  9495.445    9.83058E-18
  9497.998    9.63644E-18
  9500.551    6.44895E-18
  9503.104    4.81874E-18
  9505.657    8.86666E-18
  9508.210    6.22164E-18
  9510.763    8.67862E-18
  9513.316    5.10093E-18
  9515.869    8.15394E-18
  9518.422    3.80429E-18
  9520.975    6.46068E-18
  9523.528    3.59185E-18
  9526.081    1.49634E-18
  9528.634    1.83148E-18
  9531.187    3.46855E-18
  9533.740    6.23809E-18
  9536.293    3.51913E-18
  9538.846    3.90179E-18
  9541.399    2.55652E-18
  9543.952    1.54883E-18
#  9546.505   -2.77679E-19
  9549.058    4.67587E-18
  9551.611    6.00724E-18
  9554.164    3.12707E-18
  9556.717    4.72220E-18
  9559.270    1.12846E-17
  9561.823    7.29653E-18
  9564.376    3.34536E-18
  9566.929    7.46458E-18
  9569.482    3.86860E-18
  9572.035    7.51841E-18
  9574.588    4.33883E-18
  9577.141    3.90652E-18
  9579.694    3.32363E-18
  9582.247    3.92933E-18
  9584.800    4.40436E-18
  9587.353    3.50348E-18
  9589.906    4.02797E-18
  9592.459    2.30223E-18
  9595.012    2.22261E-18
  9597.565    9.07132E-19
#  9600.118   -1.96489E-18
  9602.671    1.15609E-18
  9605.224    2.52483E-18
#  9607.777   -8.01785E-21
#  9610.330   -3.91066E-19
  9612.883    1.88741E-18
  9615.436    1.52566E-18
  9617.989    1.90257E-18
  9620.542    1.62414E-18
  9623.095    4.12951E-18
  9625.648    5.30124E-18
  9628.201    3.17567E-18
  9630.754    5.90169E-18
  9633.307    8.34172E-18
  9635.860    8.19886E-18
  9638.413    5.74918E-18
  9640.966    3.74475E-18
  9643.519    6.12623E-18
  9646.072    4.73516E-18
  9648.625    1.02581E-17
  9651.178    5.59671E-18
  9653.731    1.09236E-17
  9656.284    5.90085E-18
  9658.837    3.41633E-18
  9661.390    2.17072E-18
  9663.943    1.97175E-19
#  9666.496   -3.12417E-18
#  9669.049   -2.15790E-18
#  9671.602   -1.78013E-18
  9674.155    3.72787E-19
#  9676.708   -2.89706E-19
  9679.261    5.61368E-19
  9681.814    8.46701E-19
#  9684.367   -5.77960E-20
#  9686.920   -5.77960E-20
#  9689.473   -5.77960E-20