#|wavelength|    flux     |
#|  float   |    float    |
  5500.000    9.88989E-18
  5502.553    6.02629E-18
  5505.106    6.01004E-18
  5507.659   -9.00614E-19
  5510.212   -7.44950E-19
  5512.765    3.46836E-19
  5515.318    1.01269E-17
  5517.871   -3.14522E-20
  5520.424    1.21363E-18
  5522.977   -1.32050E-18
  5525.530    2.31569E-18
  5528.083    3.86784E-18
  5530.636   -6.50384E-19
  5533.189    1.15065E-19
  5535.742    2.42118E-18
  5538.295    2.73209E-18
  5540.848    2.20626E-18
  5543.401    8.24287E-19
  5545.954    2.35942E-18
  5548.507    4.45546E-19
  5551.060    1.65090E-18
  5553.613    1.35895E-18
  5556.166    1.73975E-18
  5558.719    1.10503E-18
  5561.272    1.86811E-18
  5563.825    2.50254E-18
  5566.378    2.21209E-18
  5568.931    2.54192E-18
  5571.484    3.49146E-18
  5574.037    5.11846E-18
  5576.590    5.85735E-19
  5579.143    2.31372E-18
  5581.696    1.75838E-18
  5584.249    1.83748E-18
  5586.802    1.08605E-18
  5589.355    2.49389E-18
  5591.908    2.38505E-18
  5594.461    3.50410E-18
  5597.014    1.17102E-18
  5599.567    1.50345E-18
  5602.120    1.61580E-18
  5604.673    2.40700E-18
  5607.226    1.18037E-18
  5609.779    1.82640E-18
  5612.332    1.23953E-18
  5614.885    1.42108E-18
  5617.438    1.91889E-18
  5619.991    1.28536E-18
  5622.544    3.22786E-18
  5625.097    1.59988E-18
  5627.650    1.01160E-18
  5630.203    1.85628E-18
  5632.756    1.28159E-18
  5635.309    1.34840E-18
  5637.862    1.82948E-18
  5640.415    2.26539E-18
  5642.968    1.33978E-18
  5645.521    1.49631E-18
  5648.074    1.48902E-18
  5650.627    1.39745E-18
  5653.180    2.14272E-18
  5655.733    1.86265E-18
  5658.286    1.89867E-18
  5660.839    1.71893E-18
  5663.392    1.40972E-18
  5665.945    1.31066E-18
  5668.498    2.00218E-18
  5671.051    1.47475E-18
  5673.604    1.90254E-18
  5676.157    1.52700E-18
  5678.710    1.51306E-18
  5681.263    1.21243E-18
  5683.816    2.06868E-18
  5686.369    2.03927E-18
  5688.922    1.61014E-18
  5691.475    8.22656E-19
  5694.028    1.45505E-18
  5696.581    1.06747E-18
  5699.134    1.38021E-18
  5701.687    1.43831E-18
  5704.240    1.96891E-18
  5706.793    1.36268E-18
  5709.346    2.40583E-18
  5711.899    2.14943E-18
  5714.452    1.80520E-18
  5717.005    1.38977E-18
  5719.558    2.02218E-18
  5722.111    1.92139E-18
  5724.664    1.63906E-18
  5727.217    1.56874E-18
  5729.770    1.90454E-18
  5732.323    1.60945E-18
  5734.876    1.96608E-18
  5737.429    1.74833E-18
  5739.982    1.35828E-18
  5742.535    2.11713E-18
  5745.088    1.70420E-18
  5747.641    2.10569E-18
  5750.194    2.32401E-18
  5752.747    1.39069E-18
  5755.300    1.39774E-18
  5757.853    1.99465E-18
  5760.406    1.74644E-18
  5762.959    1.54299E-18
  5765.512    1.45662E-18
  5768.065    1.43253E-18
  5770.618    1.25016E-18
  5773.171    2.10773E-18
  5775.724    1.91966E-18
  5778.277    1.37151E-18
  5780.830    1.98869E-18
  5783.383    1.91469E-18
  5785.936    1.89776E-18
  5788.489    1.82916E-18
  5791.042    1.63692E-18
  5793.595    2.09915E-18
  5796.148    6.12327E-19
  5798.701    1.07773E-18
  5801.254    2.01497E-18
  5803.807    1.17347E-18
  5806.360    1.81829E-18
  5808.913    1.66980E-18
  5811.466    1.09495E-18
  5814.019    1.13138E-18
  5816.572    1.69500E-18
  5819.125    1.69395E-18
  5821.678    1.49139E-18
  5824.231    1.44821E-18
  5826.784    1.94772E-18
  5829.337    2.04331E-18
  5831.890    1.30393E-18
  5834.443    2.19429E-18
  5836.996    1.64664E-18
  5839.549    1.45136E-18
  5842.102    8.54407E-19
  5844.655    1.19261E-18
  5847.208    1.57639E-18
  5849.761    1.84254E-18
  5852.314    1.38246E-18
  5854.867    1.85880E-18
  5857.420    2.22124E-18
  5859.973    2.04180E-18
  5862.526    1.78897E-18
  5865.079    1.89861E-18
  5867.632    2.63293E-18
  5870.185    2.15502E-18
  5872.738    2.19619E-18
  5875.291    1.53691E-18
  5877.844    1.82492E-18
  5880.397    1.59689E-18
  5882.950    1.25591E-18
  5885.503    1.48561E-18
  5888.056    1.88025E-18
  5890.609    1.38491E-18
  5893.162    1.25409E-18
  5895.715    1.65012E-18
  5898.268    1.95699E-18
  5900.821    2.55703E-18
  5903.374    1.52796E-18
  5905.927    1.45621E-18
  5908.480    6.75165E-19
  5911.033    1.08949E-18
  5913.586    1.91462E-18
  5916.139    6.55516E-19
  5918.692    1.20680E-18
  5921.245    1.18908E-18
  5923.798    2.29799E-18
  5926.351    1.03579E-18
  5928.904    1.71065E-18
  5931.457    1.80210E-18
  5934.010    1.66262E-18
  5936.563    1.53091E-18
  5939.116    1.82211E-18
  5941.669    2.12416E-18
  5944.222    1.71360E-18
  5946.775    1.84199E-18
  5949.328    1.21288E-18
  5951.881    1.72581E-18
  5954.434    2.30251E-18
  5956.987    1.59127E-18
  5959.540    2.18099E-18
  5962.093    1.60583E-18
  5964.646    1.52119E-18
  5967.199    1.69934E-18
  5969.752    1.68538E-18
  5972.305    1.68719E-18
  5974.858    1.06099E-18
  5977.411    1.34261E-18
  5979.964    1.28316E-18
  5982.517    1.33579E-18
  5985.070    2.99110E-19
  5987.623    9.13851E-19
  5990.176    7.37871E-19
  5992.729    1.23623E-18
  5995.282    1.24744E-18
  5997.835    1.31823E-18
  6000.388    1.60281E-18
  6002.941    1.34255E-18
  6005.494    5.30873E-19
  6008.047    1.86437E-19
  6010.600   -6.43635E-20
  6013.153    4.76229E-20
  6015.706    1.30572E-18
  6018.259    1.18531E-18
  6020.812    1.90064E-18
  6023.365    1.04031E-18
  6025.918    2.18804E-18
  6028.471    1.92921E-18
  6031.024    1.24536E-18
  6033.577    1.21379E-18
  6036.130    1.09979E-18
  6038.683    1.62069E-18
  6041.236    2.07829E-18
  6043.789    1.90662E-18
  6046.342    1.92318E-18
  6048.895    1.59503E-18
  6051.448    1.41172E-18
  6054.001    1.82009E-18
  6056.554    1.76689E-18
  6059.107    1.95616E-18
  6061.660    1.20000E-18
  6064.213    1.70894E-18
  6066.766    1.44221E-18
  6069.319    1.16039E-18
  6071.872    2.05731E-18
  6074.425    1.52891E-18
  6076.978    1.72648E-18
  6079.531    1.42441E-18
  6082.084    2.06638E-18
  6084.637    1.60509E-18
  6087.190    1.54993E-18
  6089.743    2.23978E-18
  6092.296    1.58649E-18
  6094.849    1.31153E-18
  6097.402    1.62528E-18
  6099.955    1.57471E-18
  6102.508    1.66363E-18
  6105.061    1.43527E-18
  6107.614    1.58926E-18
  6110.167    2.15790E-18
  6112.720    1.18616E-18
  6115.273    1.67511E-18
  6117.826    1.95873E-18
  6120.379    2.38764E-18
  6122.932    1.71815E-18
  6125.485    2.00750E-18
  6128.038    1.45758E-18
  6130.591    9.41237E-19
  6133.144    1.81446E-18
  6135.697    1.65256E-18
  6138.250    1.60507E-18
  6140.803    1.39720E-18
  6143.356    1.93996E-18
  6145.909    1.77532E-18
  6148.462    1.71091E-18
  6151.015    2.15774E-18
  6153.568    1.85075E-18
  6156.121    1.98642E-18
  6158.674    1.69705E-18
  6161.227    1.48834E-18
  6163.780    1.66386E-18
  6166.333    2.00183E-18
  6168.886    1.49671E-18
  6171.439    1.49461E-18
  6173.992    1.65646E-18
  6176.545    1.69126E-18
  6179.098    1.75146E-18
  6181.651    1.87382E-18
  6184.204    1.09641E-18
  6186.757    1.76569E-18
  6189.310    1.38886E-18
  6191.863    1.70070E-18
  6194.416    1.12472E-18
  6196.969    1.76376E-18
  6199.522    2.03608E-18
  6202.075    1.59095E-18
  6204.628    1.62730E-18
  6207.181    1.94648E-18
  6209.734    1.59722E-18
  6212.287    1.65703E-18
  6214.840    1.40773E-18
  6217.393    1.75806E-18
  6219.946    2.25720E-18
  6222.499    2.09212E-18
  6225.052    2.02788E-18
  6227.605    1.46117E-18
  6230.158    1.50671E-18
  6232.711    2.03527E-18
  6235.264    2.45070E-18
  6237.817    1.47278E-18
  6240.370    1.34526E-18
  6242.923    2.11714E-18
  6245.476    1.59606E-18
  6248.029    1.41884E-18
  6250.582    1.95624E-18
  6253.135    1.67684E-18
  6255.688    1.38480E-18
  6258.241    1.67842E-18
  6260.794    1.87960E-18
  6263.347    1.57664E-18
  6265.900    1.95037E-18
  6268.453    1.50453E-18
  6271.006    1.43341E-18
  6273.559    2.18223E-18
  6276.112    1.70760E-18
  6278.665    1.50192E-18
  6281.218    1.12929E-18
  6283.771    1.34335E-18
  6286.324    1.94761E-18
  6288.877    1.95668E-18
  6291.430    1.42335E-18
  6293.983    2.20358E-18
  6296.536    2.16190E-18
  6299.089    9.83767E-19
  6301.642    1.53288E-18
  6304.195    1.22492E-18
  6306.748    1.81839E-18
  6309.301    1.58275E-18
  6311.854    1.41753E-18
  6314.407    1.90199E-18
  6316.960    1.84190E-18
  6319.513    1.68589E-18
  6322.066    1.93202E-18
  6324.619    1.98366E-18
  6327.172    2.57664E-18
  6329.725    1.88811E-18
  6332.278    1.71985E-18
  6334.831    1.99503E-18
  6337.384    1.38195E-18
  6339.937    1.99985E-18
  6342.490    1.94077E-18
  6345.043    1.78505E-18
  6347.596    1.64559E-18
  6350.149    1.83541E-18
  6352.702    1.92603E-18
  6355.255    2.04068E-18
  6357.808    1.73346E-18
  6360.361    1.77623E-18
  6362.914    1.38724E-18
  6365.467    1.77362E-18
  6368.020    2.05494E-18
  6370.573    1.71223E-18
  6373.126    2.00113E-18
  6375.679    1.53693E-18
  6378.232    1.16434E-18
  6380.785    1.45196E-18
  6383.338    1.24373E-18
  6385.891    1.81100E-18
  6388.444    1.65069E-18
  6390.997    1.47138E-18
  6393.550    1.84914E-18
  6396.103    1.77274E-18
  6398.656    1.14930E-18
  6401.209    1.65481E-18
  6403.762    2.22717E-18
  6406.315    1.46022E-18
  6408.868    1.80004E-18
  6411.421    2.24882E-18
  6413.974    1.97991E-18
  6416.527    1.51023E-18
  6419.080    2.06701E-18
  6421.633    1.81970E-18
  6424.186    2.04121E-18
  6426.739    1.53788E-18
  6429.292    2.00498E-18
  6431.845    1.63656E-18
  6434.398    1.38623E-18
  6436.951    1.38468E-18
  6439.504    2.17852E-18
  6442.057    1.55372E-18
  6444.610    2.01584E-18
  6447.163    2.38237E-18
  6449.716    2.13240E-18
  6452.269    1.75078E-18
  6454.822    1.61880E-18
  6457.375    1.83377E-18
  6459.928    1.84573E-18
  6462.481    1.81911E-18
  6465.034    1.49968E-18
  6467.587    1.80057E-18
  6470.140    1.92948E-18
  6472.693    1.12427E-18
  6475.246    2.26371E-18
  6477.799    1.64963E-18
  6480.352    1.80260E-18
  6482.905    1.77840E-18
  6485.458    1.66296E-18
  6488.011    1.94300E-18
  6490.564    1.69587E-18
  6493.117    1.62438E-18
  6495.670    1.78591E-18
  6498.223    1.95645E-18
  6500.776    1.34806E-18
  6503.329    1.79638E-18
  6505.882    1.65927E-18
  6508.435    1.31736E-18
  6510.988    1.48243E-18
  6513.541    1.46645E-18
  6516.094    1.30006E-18
  6518.647    1.09419E-18
  6521.200    1.27646E-18
  6523.753    6.32561E-19
  6526.306    6.14835E-19
  6528.859    9.64198E-19
  6531.412    1.12564E-18
  6533.965    1.94040E-18
  6536.518    1.48938E-18
  6539.071    1.14687E-18
  6541.624    1.69507E-18
  6544.177    1.45918E-18
  6546.730    1.84507E-18
  6549.283    7.91960E-19
  6551.836    2.80930E-19
  6554.389    1.38167E-19
  6556.942    3.32935E-19
  6559.495    5.33446E-19
  6562.048    7.48838E-19
  6564.601    1.29273E-18
  6567.154    1.69382E-18
  6569.707    1.47194E-18
  6572.260    1.62063E-18
  6574.813    1.90361E-18
  6577.366    2.16047E-18
  6579.919    1.71419E-18
  6582.472    1.29506E-18
  6585.025    1.61799E-18
  6587.578    1.86192E-18
  6590.131    2.01101E-18
  6592.684    2.08165E-18
  6595.237    1.54735E-18
  6597.790    1.87838E-18
  6600.343    1.90726E-18
  6602.896    1.79635E-18
  6605.449    1.93107E-18
  6608.002    1.68127E-18
  6610.555    1.23689E-18
  6613.108    2.14316E-18
  6615.661    1.72333E-18
  6618.214    1.42883E-18
  6620.767    1.38299E-18
  6623.320    1.65639E-18
  6625.873    1.56280E-18
  6628.426    2.22680E-18
  6630.979    1.59684E-18
  6633.532    1.49466E-18
  6636.085    1.77994E-18
  6638.638    1.55767E-18
  6641.191    1.83850E-18
  6643.744    1.97761E-18
  6646.297    1.27601E-18
  6648.850    1.73787E-18
  6651.403    1.99347E-18
  6653.956    1.93969E-18
  6656.509    1.60019E-18
  6659.062    2.03773E-18
  6661.615    1.86250E-18
  6664.168    1.43184E-18
  6666.721    1.81447E-18
  6669.274    2.00310E-18
  6671.827    2.25150E-18
  6674.380    1.89603E-18
  6676.933    2.32807E-18
  6679.486    1.54822E-18
  6682.039    1.88646E-18
  6684.592    1.73903E-18
  6687.145    1.61831E-18
  6689.698    1.79909E-18
  6692.251    2.01524E-18
  6694.804    1.71800E-18
  6697.357    2.12960E-18
  6699.910    2.11384E-18
  6702.463    2.01769E-18
  6705.016    2.09337E-18
  6707.569    2.20446E-18
  6710.122    1.72454E-18
  6712.675    2.36468E-18
  6715.228    2.03076E-18
  6717.781    1.98760E-18
  6720.334    2.05578E-18
  6722.887    1.97077E-18
  6725.440    1.87840E-18
  6727.993    1.51115E-18
  6730.546    1.41449E-18
  6733.099    2.00808E-18
  6735.652    2.12954E-18
  6738.205    1.95565E-18
  6740.758    2.33542E-18
  6743.311    2.04755E-18
  6745.864    1.47994E-18
  6748.417    1.77329E-18
  6750.970    1.97152E-18
  6753.523    1.79936E-18
  6756.076    1.78805E-18
  6758.629    2.13789E-18
  6761.182    1.63428E-18
  6763.735    1.64800E-18
  6766.288    1.42476E-18
  6768.841    1.42892E-18
  6771.394    1.69368E-18
  6773.947    2.23397E-18
  6776.500    1.77350E-18
  6779.053    1.51610E-18
  6781.606    1.72318E-18
  6784.159    1.77490E-18
  6786.712    1.80510E-18
  6789.265    1.50731E-18
  6791.818    1.52545E-18
  6794.371    1.77426E-18
  6796.924    2.10191E-18
  6799.477    1.94488E-18
  6802.030    1.68728E-18
  6804.583    1.59037E-18
  6807.136    1.86888E-18
  6809.689    1.76559E-18
  6812.242    1.86621E-18
  6814.795    1.52291E-18
  6817.348    1.56721E-18
  6819.901    1.80428E-18
  6822.454    1.84888E-18
  6825.007    1.16465E-18
  6827.560    1.47230E-18
  6830.113    1.69034E-18
  6832.666    1.36481E-18
  6835.219    1.60900E-18
  6837.772    1.95736E-18
  6840.325    1.64295E-18
  6842.878    1.83943E-18
  6845.431    1.71689E-18
  6847.984    2.14982E-18
  6850.537    1.66921E-18
  6853.090    1.34497E-18
  6855.643    8.50496E-19
  6858.196    1.66314E-18
  6860.749    1.61500E-18
  6863.302    2.20021E-18
  6865.855    2.06777E-18
  6868.408    1.75353E-18
  6870.961    1.39637E-18
  6873.514    1.32868E-18
  6876.067    2.37131E-18
  6878.620    1.29419E-18
  6881.173    1.72761E-18
  6883.726    1.70374E-18
  6886.279    1.85884E-18
  6888.832    1.71455E-18
  6891.385    1.61517E-18
  6893.938    2.22408E-18
  6896.491    1.45876E-18
  6899.044    1.75282E-18
  6901.597    1.53909E-18
  6904.150    1.49287E-18
  6906.703    2.40723E-18
  6909.256    2.05911E-18
  6911.809    1.29899E-18
  6914.362    1.43933E-18
  6916.915    1.80444E-18
  6919.468    2.09122E-18
  6922.021    1.28471E-18
  6924.574    2.14731E-18
  6927.127    1.34084E-18
  6929.680    1.91861E-18
  6932.233    1.42019E-18
  6934.786    1.42125E-18
  6937.339    2.29519E-18
  6939.892    1.54616E-18
  6942.445    1.54548E-18
  6944.998    1.48976E-18
  6947.551    1.01286E-18
  6950.104    1.41134E-18
  6952.657    1.46707E-18
  6955.210    1.51921E-18
  6957.763    1.48985E-18
  6960.316    1.91762E-18
  6962.869    1.63619E-18
  6965.422    1.34719E-18
  6967.975    1.64790E-18
  6970.528    1.57139E-18
  6973.081    1.34275E-18
  6975.634    1.42565E-18
  6978.187    1.68505E-18
  6980.740    1.92259E-18
  6983.293    2.03735E-18
  6985.846    1.83858E-18
  6988.399    1.13969E-18
  6990.952    1.53135E-18
  6993.505    1.63809E-18
  6996.058    1.60179E-18
  6998.611    1.51659E-18
  7001.164    1.75338E-18
  7003.717    1.81217E-18
  7006.270    2.09297E-18
  7008.823    1.49966E-18
  7011.376    1.23312E-18
  7013.929    1.74015E-18
  7016.482    1.48470E-18
  7019.035    1.66698E-18
  7021.588    1.96295E-18
  7024.141    1.76075E-18
  7026.694    1.80556E-18
  7029.247    1.85394E-18
  7031.800    1.52042E-18
  7034.353    1.38857E-18
  7036.906    1.23954E-18
  7039.459    1.16810E-18
  7042.012    7.72951E-19
  7044.565    3.88820E-19
  7047.118    4.15854E-19
  7049.671    6.94468E-19
  7052.224    2.25616E-19
  7054.777    5.13874E-19
  7057.330    3.99129E-19
  7059.883    5.09008E-19
  7062.436    4.67462E-19
  7064.989    1.35834E-20
  7067.542    1.61484E-19
  7070.095   -1.90930E-20
  7072.648   -7.64017E-20
  7075.201    5.89197E-19
  7077.754    1.51767E-18
  7080.307    1.93886E-18
  7082.860    2.19581E-18
  7085.413    1.87735E-18
  7087.966    1.96945E-18
  7090.519    1.82234E-18
  7093.072    2.04309E-18
  7095.625    1.46805E-18
  7098.178    1.64298E-18
  7100.731    1.24596E-18
  7103.284    1.38020E-18
  7105.837    1.71849E-18
  7108.390    2.02388E-18
  7110.943    1.90743E-18
  7113.496    1.32603E-18
  7116.049    1.28490E-18
  7118.602    1.51781E-18
  7121.155    1.33289E-18
  7123.708    1.77428E-18
  7126.261    1.82707E-18
  7128.814    1.88255E-18
  7131.367    1.56190E-18
  7133.920    2.01336E-18
  7136.473    1.47161E-18
  7139.026    1.45415E-18
  7141.579    1.10025E-18
  7144.132    1.66628E-18
  7146.685    8.47379E-19
  7149.238    1.60942E-18
  7151.791    1.87493E-18
  7154.344    1.39803E-18
  7156.897    1.63933E-18
  7159.450    1.73581E-18
  7162.003    1.63948E-18
  7164.556    1.68943E-18
  7167.109    2.04775E-18
  7169.662    1.26515E-18
  7172.215    1.78259E-18
  7174.768    1.54747E-18
  7177.321    8.66237E-19
  7179.874    1.43143E-18
  7182.427    1.15524E-18
  7184.980    1.01742E-18
  7187.533    1.26032E-18
  7190.086    1.59843E-18
  7192.639    1.18450E-18
  7195.192    1.14286E-18
  7197.745    1.14942E-18
  7200.298    1.89656E-18
  7202.851    1.45960E-18
  7205.404    1.74824E-18
  7207.957    2.05590E-18
  7210.510    1.72568E-18
  7213.063    1.85811E-18
  7215.616    2.26425E-18
  7218.169    2.17454E-18
  7220.722    1.34615E-18
  7223.275    1.78309E-18
  7225.828    1.15244E-18
  7228.381    1.55436E-18
  7230.934    1.45335E-18
  7233.487    1.78441E-18
  7236.040    1.71253E-18
  7238.593    2.05841E-18
  7241.146    2.18630E-18
  7243.699    1.90739E-18
  7246.252    1.25121E-18
  7248.805    2.12563E-18
  7251.358    1.07248E-18
  7253.911    1.48761E-18
  7256.464    2.07969E-18
  7259.017    1.58866E-18
  7261.570    1.49183E-18
  7264.123    1.34777E-18
  7266.676    1.53559E-18
  7269.229    1.98715E-18
  7271.782    1.54522E-18
  7274.335    1.78808E-18
  7276.888    1.55095E-18
  7279.441    1.36935E-18
  7281.994    1.91330E-18
  7284.547    1.39674E-18
  7287.100    1.48265E-18
  7289.653    9.69268E-19
  7292.206    1.70032E-18
  7294.759    2.09932E-18
  7297.312    1.36486E-18
  7299.865    1.89863E-18
  7302.418    1.69878E-18
  7304.971    1.22355E-18
  7307.524    2.51356E-18
  7310.077    2.04049E-18
  7312.630    1.10747E-18
  7315.183    2.11604E-18
  7317.736    1.68591E-18
  7320.289    1.42718E-18
  7322.842    1.64545E-18
  7325.395    1.02023E-18
  7327.948    1.39614E-18
  7330.501    1.77894E-18
  7333.054    2.12923E-18
  7335.607    2.10791E-18
  7338.160    1.78686E-18
  7340.713    1.33872E-18
  7343.266    1.01152E-18
  7345.819    1.37709E-18
  7348.372    1.52025E-18
  7350.925    2.00274E-18
  7353.478    1.11487E-18
  7356.031    1.75450E-18
  7358.584    1.85233E-18
  7361.137    1.71793E-18
  7363.690    1.48925E-18
  7366.243    1.35930E-18
  7368.796    2.35867E-18
  7371.349    1.85103E-18
  7373.902    1.71066E-18
  7376.455    2.13453E-18
  7379.008    1.46146E-18
  7381.561    2.11029E-18
  7384.114    1.98807E-18
  7386.667    1.56759E-18
  7389.220    1.54684E-18
  7391.773    1.91948E-18
  7394.326    1.65553E-18
  7396.879    1.12128E-18
  7399.432    1.16641E-18
  7401.985    1.31202E-18
  7404.538    1.44729E-18
  7407.091    1.80518E-18
  7409.644    1.48644E-18
  7412.197    2.05251E-18
  7414.750    2.26307E-18
  7417.303    1.56453E-18
  7419.856    1.01111E-18
  7422.409    1.41267E-18
  7424.962    1.83355E-18
  7427.515    2.08882E-18
  7430.068    2.25159E-18
  7432.621    1.73106E-18
  7435.174    1.69243E-18
  7437.727    1.38871E-18
  7440.280    1.52688E-18
  7442.833    1.46911E-18
  7445.386    1.16239E-18
  7447.939    1.53348E-18
  7450.492    1.72582E-18
  7453.045    1.56563E-18
  7455.598    1.85871E-18
  7458.151    1.85119E-18
  7460.704    1.53656E-18
  7463.257    1.70545E-18
  7465.810    2.14345E-18
  7468.363    1.69382E-18
  7470.916    2.10655E-18
  7473.469    1.00001E-18
  7476.022    1.47013E-18
  7478.575    2.08203E-18
  7481.128    1.82303E-18
  7483.681    1.14458E-18
  7486.234    8.84544E-19
  7488.787    1.20954E-18
  7491.340    1.41376E-18
  7493.893    1.55736E-18
  7496.446    1.43485E-18
  7498.999    1.81510E-18
  7501.552    1.74440E-18
  7504.105    6.59953E-19
  7506.658    1.37655E-18
  7509.211    1.65527E-18
  7511.764    1.56989E-18
  7514.317    2.08893E-18
  7516.870    2.03077E-18
  7519.423    2.06899E-18
  7521.976    1.60965E-18
  7524.529    1.70970E-18
  7527.082    1.60731E-18
  7529.635    1.81622E-18
  7532.188    1.02555E-18
  7534.741    1.98297E-18
  7537.294    1.36917E-18
  7539.847    1.46603E-18
  7542.400    1.98574E-18
  7544.953    1.96492E-18
  7547.506    2.09072E-18
  7550.059    1.69902E-18
  7552.612    1.33011E-18
  7555.165    1.32662E-18
  7557.718    1.27090E-18
  7560.271    1.62167E-18
  7562.824    1.28309E-18
  7565.377    1.68409E-18
  7567.930    1.11639E-18
  7570.483    1.92091E-18
  7573.036    1.58466E-18
  7575.589    1.41688E-18
  7578.142    1.47815E-18
  7580.695    1.22898E-18
  7583.248    1.06318E-18
  7585.801    9.43113E-19
  7588.354    9.86235E-19
  7590.907    1.19393E-18
  7593.460    4.68777E-19
  7596.013    1.67567E-18
  7598.566    2.40070E-18
  7601.119    8.34166E-19
  7603.672    2.90322E-18
  7606.225    1.42163E-18
  7608.778    1.92333E-18
  7611.331    1.94734E-18
  7613.884    1.65198E-18
  7616.437    1.81956E-18
  7618.990    1.50036E-18
  7621.543    1.75418E-18
  7624.096    1.17399E-18
  7626.649    2.06955E-18
  7629.202    3.11050E-19
  7631.755    1.64712E-18
  7634.308    1.89175E-18
  7636.861    1.60442E-18
  7639.414    1.58709E-18
  7641.967    1.63331E-18
  7644.520    1.59794E-18
  7647.073    1.65565E-18
  7649.626    1.81124E-18
  7652.179    1.44799E-18
  7654.732    1.51507E-18
  7657.285    1.11878E-18
  7659.838    1.59998E-18
  7662.391    1.54617E-18
  7664.944    2.19300E-18
  7667.497    1.84571E-18
  7670.050    1.68881E-18
  7672.603    1.72452E-18
  7675.156    1.64767E-18
  7677.709    1.93952E-18
  7680.262    1.84592E-18
  7682.815    1.60671E-18
  7685.368    1.74020E-18
  7687.921    1.58526E-18
  7690.474    1.08886E-18
  7693.027    1.83788E-18
  7695.580    1.60068E-18
  7698.133    1.11042E-18
  7700.686    8.62287E-19
  7703.239    1.78805E-18
  7705.792    1.81312E-18
  7708.345    2.94659E-18
  7710.898    1.43389E-18
  7713.451    1.35362E-18
  7716.004    1.01239E-18
  7718.557    2.03256E-18
  7721.110    1.89026E-18
  7723.663    1.34935E-18
  7726.216    1.12706E-18
  7728.769    1.54037E-18
  7731.322    1.27087E-18
  7733.875    1.73025E-18
  7736.428    2.14779E-18
  7738.981    1.60754E-18
  7741.534    2.08971E-18
  7744.087    1.40360E-18
  7746.640    1.24833E-18
  7749.193    1.13298E-18
  7751.746    7.04076E-19
  7754.299    1.72756E-18
  7756.852    1.82165E-18
  7759.405    1.83384E-18
  7761.958    9.85111E-19
  7764.511    1.03112E-18
  7767.064    1.40471E-18
  7769.617    1.96671E-18
  7772.170    1.68358E-18
  7774.723    1.47180E-18
  7777.276    1.64518E-18
  7779.829    2.45129E-18
  7782.382    1.36545E-18
  7784.935    1.11228E-18
  7787.488    1.71599E-18
  7790.041    2.06378E-18
  7792.594    1.88299E-18
  7795.147    1.43417E-18
  7797.700    1.09814E-18
  7800.253    1.31696E-18
  7802.806    1.12993E-18
  7805.359    1.67503E-18
  7807.912    2.45772E-18
  7810.465    1.33779E-18
  7813.018    1.63985E-18
  7815.571    7.34791E-19
  7818.124    1.08971E-18
  7820.677    1.77105E-18
  7823.230    2.25668E-18
  7825.783    1.22939E-18
  7828.336    1.78001E-18
  7830.889    1.27767E-19
  7833.442    6.26336E-19
  7835.995    8.47195E-19
  7838.548    2.20354E-18
  7841.101    9.39815E-19
  7843.654    1.10955E-18
  7846.207    1.19892E-18
  7848.760    2.20225E-18
  7851.313    1.82678E-18
  7853.866    1.68762E-18
  7856.419    1.39600E-18
  7858.972    1.14304E-18
  7861.525    2.30349E-18
  7864.078    2.45653E-18
  7866.631    1.69137E-18
  7869.184    1.58138E-18
  7871.737    1.08856E-18
  7874.290    1.46842E-18
  7876.843    1.21914E-18
  7879.396    1.16601E-18
  7881.949    2.38247E-18
  7884.502    7.79391E-19
  7887.055    2.11788E-18
  7889.608    2.61636E-18
  7892.161    1.90428E-18
  7894.714    1.10064E-18
  7897.267    1.44573E-18
  7899.820    1.74060E-18
  7902.373    9.97574E-19
  7904.926    1.65523E-18
  7907.479    4.46780E-19
  7910.032    1.88214E-18
  7912.585    2.52923E-18
  7915.138    1.39767E-18
  7917.691    1.12735E-18
  7920.244    2.31368E-18
  7922.797    1.96429E-18
  7925.350    1.46345E-18
  7927.903    6.87278E-19
  7930.456    1.28863E-18
  7933.009    1.99987E-18
  7935.562    1.54298E-18
  7938.115    1.36761E-18
  7940.668    1.00056E-18
  7943.221    7.97971E-19
  7945.774    1.43453E-18
  7948.327    2.06605E-18
  7950.880    1.39582E-18
  7953.433    2.27836E-18
  7955.986    1.85817E-18
  7958.539    1.53683E-18
  7961.092    2.05553E-18
  7963.645    1.06770E-18
  7966.198    9.99411E-19
  7968.751    1.51081E-18
  7971.304    1.66615E-18
  7973.857    1.14409E-18
  7976.410    8.56152E-19
  7978.963    1.01575E-18
  7981.516    1.60710E-18
  7984.069    2.07042E-18
  7986.622    2.01396E-18
  7989.175    6.64474E-19
  7991.728    1.73712E-18
  7994.281    2.20606E-18
  7996.834    1.72961E-18
  7999.387    1.53732E-18
  8001.940    1.43289E-18
  8004.493    1.07756E-18
  8007.046    8.60612E-19
  8009.599    7.87276E-19
  8012.152    1.55230E-18
  8014.705    1.38958E-18
  8017.258    1.64010E-18
  8019.811    1.01467E-18
  8022.364    1.80597E-18
  8024.917    1.57735E-18
  8027.470    2.47137E-18
  8030.023    1.41465E-18
  8032.576    1.75287E-18
  8035.129    1.30618E-18
  8037.682    1.35204E-18
  8040.235    1.63455E-18
  8042.788    1.70552E-18
  8045.341    1.11002E-18
  8047.894    1.39128E-18
  8050.447    8.94019E-19
  8053.000    4.20474E-19
  8055.553    8.32917E-19
  8058.106    5.43447E-19
  8060.659    1.34177E-18
  8063.212    2.00885E-18
  8065.765    1.20556E-18
  8068.318    7.64513E-19
  8070.871    1.10323E-18
  8073.424    7.15484E-19
  8075.977    9.66692E-19
  8078.530    1.78370E-18
  8081.083    1.50796E-18
  8083.636    1.32883E-18
  8086.189    1.22907E-18
  8088.742    1.90851E-18
  8091.295    1.95792E-18
  8093.848    1.96576E-18
  8096.401    1.36557E-18
  8098.954    6.90883E-19
  8101.507    1.24660E-18
  8104.060    1.89261E-18
  8106.613    8.44159E-19
  8109.166    1.23090E-18
  8111.719    1.62252E-18
  8114.272    1.86576E-18
  8116.825    1.27615E-18
  8119.378    1.07251E-18
  8121.931    1.70439E-18
  8124.484    1.57689E-18
  8127.037    1.91791E-18
  8129.590    1.52101E-18
  8132.143    1.15424E-18
  8134.696    1.86095E-18
  8137.249    8.90240E-19
  8139.802    1.44936E-18
  8142.355    8.96008E-19
  8144.908    9.83103E-19
  8147.461    8.76434E-19
  8150.014    1.14272E-18
  8152.567    8.88813E-19
  8155.120    1.00588E-18
  8157.673    9.44952E-19
  8160.226    9.49199E-19
  8162.779    9.89202E-19
  8165.332    1.30121E-18
  8167.885    1.16345E-18
  8170.438    1.18859E-18
  8172.991    7.39948E-19
  8175.544    1.19454E-18
  8178.097    1.45936E-18
  8180.650    5.71382E-19
  8183.203    1.03302E-18
  8185.756    1.06581E-18
  8188.309    1.18028E-18
  8190.862    8.96902E-19
  8193.415    6.62915E-19
  8195.968    1.03915E-18
  8198.521    9.00027E-19
  8201.074    1.23828E-18
  8203.627    9.23102E-19
  8206.180    1.02386E-18
  8208.733    1.08965E-18
  8211.286    1.35467E-18
  8213.839    8.53282E-19
  8216.392    8.12888E-19
  8218.945    1.08296E-18
  8221.498    1.07016E-18
  8224.051    1.53524E-18
  8226.604    1.63937E-18
  8229.157    1.02055E-18
  8231.710    2.26144E-18
  8234.263    2.00632E-18
  8236.816    1.41050E-18
  8239.369    1.35299E-18
  8241.922    1.02508E-18
  8244.475    9.56433E-19
  8247.028    4.53168E-19
  8249.581    1.47194E-18
  8252.134    1.24656E-18
  8254.687    1.04186E-18
  8257.240    1.50921E-18
  8259.793    1.25548E-18
  8262.346    6.05145E-19
  8264.899    1.12752E-18
  8267.452    1.64087E-18
  8270.005    1.65011E-18
  8272.558    8.13903E-19
  8275.111    5.60187E-19
  8277.664    8.90679E-19
  8280.217    6.52306E-19
  8282.770    2.94172E-18
  8285.323    7.10096E-19
  8287.876    2.95021E-19
  8290.429    1.35912E-19
  8292.982    3.74024E-19
  8295.535    1.07843E-18
  8298.088    1.58728E-18
  8300.641    5.69439E-19
  8303.194    3.75489E-19
  8305.747    1.62159E-18
  8308.300    1.90013E-18
  8310.853    2.41135E-19
  8313.406    2.48120E-18
  8315.959    1.32810E-18
  8318.512    1.22359E-18
  8321.065    1.56745E-18
  8323.618    1.57333E-18
  8326.171    1.26028E-18
  8328.724    9.60618E-19
  8331.277    1.25330E-18
  8333.830   -2.15306E-19
  8336.383   -6.56392E-19
  8338.936    1.89124E-18
  8341.489    2.50866E-18
  8344.042    2.04604E-18
  8346.595    2.17742E-18
  8349.148    2.59512E-19
  8351.701    2.23751E-18
  8354.254    1.38660E-18
  8356.807    1.07823E-18
  8359.360    1.52388E-18
  8361.913    1.36530E-18
  8364.466    1.56437E-18
  8367.019    1.64368E-18
  8369.572    1.64875E-18
  8372.125    1.01046E-18
  8374.678    1.00316E-18
  8377.231    1.10355E-18
  8379.784    8.73681E-19
  8382.337    5.64641E-19
  8384.890    3.94778E-19
  8387.443    1.04680E-18
  8389.996    1.12363E-18
  8392.549    1.59200E-18
  8395.102    1.65262E-18
  8397.655   -5.74444E-19
  8400.208    1.14330E-18
  8402.761    1.68066E-18
  8405.314    9.62870E-19
  8407.867    1.45202E-18
  8410.420    1.36057E-18
  8412.973    1.38824E-18
  8415.526    3.32168E-19
  8418.079    1.66219E-18
  8420.632    2.25184E-18
  8423.185    8.77421E-19
  8425.738    1.37589E-18
  8428.291    2.26751E-18
  8430.844   -1.56118E-19
  8433.397    1.25626E-18
  8435.950    7.94151E-19
  8438.503    2.01335E-18
  8441.056    2.22028E-18
  8443.609    1.11937E-18
  8446.162    1.61263E-18
  8448.715    1.44248E-18
  8451.268    9.84288E-19
  8453.821    1.77007E-19
  8456.374    1.07780E-18
  8458.927    1.61484E-18
  8461.480    1.67398E-18
  8464.033    5.19171E-20
  8466.586   -1.02495E-18
  8469.139    7.48120E-19
  8471.692    1.76545E-18
  8474.245    9.69613E-19
  8476.798    9.79908E-19
  8479.351    6.63889E-19
  8481.904    1.28760E-18
  8484.457    8.17459E-19
  8487.010    1.29071E-18
  8489.563    1.39696E-18
  8492.116    8.92824E-19
  8494.669    1.16444E-18
  8497.222    9.82208E-19
  8499.775    2.18364E-18
  8502.328    4.30014E-19
  8504.881    8.58327E-19
  8507.434    2.05924E-18
  8509.987    1.51936E-18
  8512.540    1.65997E-18
  8515.093    1.66025E-18
  8517.646    1.30939E-18
  8520.199    1.68535E-18
  8522.752    1.39762E-18
  8525.305    1.62251E-18
  8527.858    5.26537E-19
  8530.411    5.28761E-19
  8532.964    4.06578E-19
  8535.517    1.33958E-18
  8538.070    6.09113E-19
  8540.623    1.22663E-18
  8543.176    2.14679E-19
  8545.729   -1.10106E-19
  8548.282    6.83393E-19
  8550.835    7.05158E-19
  8553.388    7.28392E-19
  8555.941    1.03689E-18
  8558.494    9.94339E-19
  8561.047    5.87508E-19
  8563.600    3.85320E-19
  8566.153    7.31745E-19
  8568.706    4.64594E-19
  8571.259    1.26662E-18
  8573.812    6.14312E-19
  8576.365    9.42114E-19
  8578.918    1.05147E-18
  8581.471    1.15108E-18
  8584.024    1.27523E-18
  8586.577    7.17410E-19
  8589.130    7.78383E-19
  8591.683    1.84679E-18
  8594.236    1.85100E-18
  8596.789    1.32562E-18
  8599.342    9.79844E-19
  8601.895    1.29910E-18
  8604.448    9.17532E-19
  8607.001    1.49610E-18
  8609.554    2.40632E-18
  8612.107    1.79506E-18
  8614.660    1.03207E-18
  8617.213    1.79581E-18
  8619.766    2.05567E-18
  8622.319    6.86761E-19
  8624.872    3.15209E-18
  8627.425    8.89589E-19
  8629.978    3.44931E-19
  8632.531    1.07716E-18
  8635.084    1.39607E-18
  8637.637    2.82256E-19
  8640.190    4.44918E-19
  8642.743    1.37138E-18
  8645.296    1.89062E-18
  8647.849    2.23395E-18
  8650.402    9.42290E-19
  8652.955    1.55455E-18
  8655.508    8.30734E-19
  8658.061    1.34018E-18
  8660.614    9.92295E-19
  8663.167    1.44482E-18
  8665.720   -4.30930E-20
  8668.273    3.46669E-19
  8670.826    2.03779E-18
  8673.379    8.33034E-19
  8675.932    1.26609E-18
  8678.485    1.35992E-18
  8681.038    1.05440E-18
  8683.591    1.14645E-18
  8686.144    9.45932E-19
  8688.697    1.52555E-18
  8691.250    1.67187E-18
  8693.803    2.05890E-18
  8696.356    5.91863E-19
  8698.909    3.56714E-19
  8701.462    1.35792E-18
  8704.015    1.22004E-18
  8706.568    2.91326E-19
  8709.121    9.60256E-19
  8711.674    1.50212E-18
  8714.227    1.56060E-18
  8716.780    1.00495E-18
  8719.333    1.68232E-18
  8721.886    1.40456E-18
  8724.439    6.05615E-19
  8726.992    8.71265E-19
  8729.545    1.46740E-18
  8732.098    1.21051E-18
  8734.651    1.14107E-18
  8737.204    8.24096E-19
  8739.757    7.50028E-19
  8742.310    9.19306E-19
  8744.863    6.86554E-19
  8747.416    1.14206E-18
  8749.969    1.17307E-18
  8752.522    1.35341E-18
  8755.075    1.19696E-18
  8757.628    3.12022E-18
  8760.181    3.38463E-18
  8762.734    5.86165E-18
  8765.287    1.23065E-18
  8767.840    2.10871E-18
  8770.393    2.51820E-18
  8772.946    8.59702E-19
  8775.499    3.16247E-19
  8778.052    9.78984E-19
  8780.605    1.12047E-18
  8783.158    8.87054E-19
  8785.711    1.09361E-18
  8788.264    9.73187E-19
  8790.817    7.90822E-19
  8793.370    1.11936E-18
  8795.923    7.12565E-19
  8798.476    1.58376E-18
  8801.029    7.18760E-19
  8803.582    9.99728E-19
  8806.135    5.50514E-19
  8808.688    1.53609E-18
  8811.241    8.04306E-19
  8813.794    1.01254E-18
  8816.347    2.76997E-18
  8818.900    2.12970E-18
  8821.453    1.08984E-18
  8824.006    3.66985E-18
  8826.559    2.62895E-18
  8829.112    2.90932E-18
  8831.665    1.62471E-18
  8834.218    1.51996E-18
  8836.771    1.68816E-19
  8839.324    1.80031E-18
  8841.877    1.59572E-18
  8844.430    1.14110E-18
  8846.983    1.37616E-18
  8849.536    2.24309E-18
  8852.089    1.03643E-18
  8854.642    1.63512E-18
  8857.195    1.18405E-18
  8859.748    9.45292E-19
  8862.301    8.39792E-19
  8864.854    6.77709E-19
  8867.407    7.14445E-19
  8869.960    8.24773E-19
  8872.513    6.64556E-19
  8875.066    4.34475E-19
  8877.619    1.05200E-18
  8880.172    2.05075E-18
  8882.725   -2.77366E-19
  8885.278   -2.63984E-19
  8887.831   -4.22506E-19
  8890.384    9.33937E-19
  8892.937    6.05909E-19
  8895.490    1.25462E-18
  8898.043    8.30802E-19
  8900.596    2.07493E-19
  8903.149    1.90760E-18
  8905.702    9.05435E-19
  8908.255    3.03360E-18
  8910.808    2.39633E-18
  8913.361    3.59374E-18
  8915.914    9.71370E-19
  8918.467    1.00442E-18
  8921.020    1.52737E-18
  8923.573    1.49350E-18
  8926.126   -1.14949E-19
  8928.679    1.61329E-18
  8931.232    1.87842E-19
  8933.785   -6.11257E-19
  8936.338    3.31399E-18
  8938.891    2.44158E-18
  8941.444    4.08084E-19
  8943.997   -1.28877E-18
  8946.550    1.62901E-18
  8949.103   -5.64246E-19
  8951.656   -9.32421E-19
  8954.209    1.10349E-18
  8956.762    6.86219E-19
  8959.315    1.29503E-18
  8961.868    1.42725E-19
  8964.421    1.75140E-19
  8966.974    3.52978E-20
  8969.527    7.55676E-19
  8972.080    7.27107E-19
  8974.633    1.02262E-18
  8977.186    9.25860E-19
  8979.739    9.05123E-19
  8982.292    1.04934E-18
  8984.845    6.33697E-19
  8987.398    1.56620E-18
  8989.951    1.48509E-18
  8992.504    2.67206E-18
  8995.057    6.05494E-19
  8997.610    1.09290E-18
  9000.163    2.87352E-19
  9002.716   -1.59461E-19
  9005.269    7.72199E-19
  9007.822    4.62061E-19
  9010.375    8.10283E-19
  9012.928    4.57181E-19
  9015.481    1.00829E-18
  9018.034    1.31662E-18
  9020.587    9.82221E-19
  9023.140    3.07655E-19
  9025.693    1.69305E-18
  9028.246    1.56099E-18
  9030.799    7.05395E-19
  9033.352    9.58367E-19
  9035.905    1.79656E-18
  9038.458    9.04927E-19
  9041.011    1.50105E-18
  9043.564    2.26203E-18
  9046.117    1.45785E-18
  9048.670    1.11093E-18
  9051.223    2.14872E-18
  9053.776    8.47101E-19
  9056.329    5.47106E-19
  9058.882    8.86407E-19
  9061.435    6.04417E-19
  9063.988    4.55034E-19
  9066.541    3.54091E-19
  9069.094    5.60321E-19
  9071.647    4.99535E-19
  9074.200    4.03900E-19
  9076.753    3.49449E-20
  9079.306    7.95076E-19
  9081.859    1.57421E-18
  9084.412    4.65889E-19
  9086.965    1.67197E-18
  9089.518    1.86939E-18
  9092.071    1.47577E-18
  9094.624    1.60121E-19
  9097.177    1.41068E-18
  9099.730    1.29521E-18
  9102.283    1.68735E-18
  9104.836    2.38581E-18
  9107.389    2.06790E-18
  9109.942    7.63497E-19
  9112.495    1.05760E-18
  9115.048    1.55521E-18
  9117.601    7.83882E-19
  9120.154    5.17217E-19
  9122.707    1.23474E-18
  9125.260    5.55983E-19
  9127.813    5.64998E-19
  9130.366    4.87796E-19
  9132.919    2.43237E-19
  9135.472    1.23652E-18
  9138.025    6.02167E-19
  9140.578    1.05857E-18
  9143.131    8.98784E-19
  9145.684    1.53834E-18
  9148.237    1.31344E-18
  9150.790    6.08265E-19
  9153.343    1.43009E-18
  9155.896   -6.73351E-19
  9158.449    6.40018E-19
  9161.002    1.14819E-18
  9163.555    5.23597E-19
  9166.108    1.43995E-18
  9168.661    1.62076E-18
  9171.214    1.01844E-18
  9173.767    6.35479E-19
  9176.320    7.05454E-19
  9178.873    5.68468E-19
  9181.426    4.30773E-19
  9183.979    2.14981E-18
  9186.532    1.53604E-18
  9189.085    7.77447E-19
  9191.638    4.77101E-19
  9194.191    2.20567E-19
  9196.744    2.75682E-19
  9199.297    3.71558E-19
  9201.850    5.95090E-19
  9204.403    1.36594E-18
  9206.956    1.00965E-19
  9209.509    4.35080E-19
  9212.062    7.54616E-19
  9214.615    5.33784E-19
  9217.168    7.94599E-19
  9219.721    3.96594E-19
  9222.274    6.92886E-19
  9224.827    1.11662E-18
  9227.380    7.01098E-19
  9229.933    2.09952E-18
  9232.486    1.65683E-18
  9235.039    1.17735E-18
  9237.592    1.61495E-18
  9240.145    7.34664E-19
  9242.698    1.77609E-18
  9245.251    1.18289E-18
  9247.804    4.07372E-19
  9250.357    8.14799E-19
  9252.910    1.99385E-19
  9255.463    8.34382E-20
  9258.016    5.77550E-19
  9260.569    2.77924E-19
  9263.122    4.88019E-19
  9265.675    1.46500E-18
  9268.228    3.99086E-19
  9270.781   -7.56493E-20
  9273.334    4.05419E-19
  9275.887    5.51835E-19
  9278.440    5.81182E-19
  9280.993   -2.67079E-19
  9283.546    3.71725E-19
  9286.099    1.37943E-18
  9288.652    2.30686E-19
  9291.205    5.78687E-19
  9293.758    9.22430E-19
  9296.311    3.08309E-18
  9298.864    1.31551E-18
  9301.417    4.20457E-19
  9303.970   -4.62513E-19
  9306.523    1.99513E-18
  9309.076    9.42368E-19
  9311.629    4.52349E-19
  9314.182   -5.42661E-19
  9316.735   -7.32949E-19
  9319.288    7.91511E-19
  9321.841   -3.01635E-19
  9324.394   -2.68671E-19
  9326.947    5.01346E-19
  9329.500    5.37513E-20
  9332.053    6.80197E-19
  9334.606    8.61526E-19
  9337.159   -4.18671E-20
  9339.712    4.52869E-19
  9342.265    6.81294E-19
  9344.818    1.76493E-18
  9347.371    6.19517E-20
  9349.924    2.41573E-19
  9352.477    9.96129E-19
  9355.030    1.15464E-18
  9357.583    7.30491E-19
  9360.136    5.40321E-19
  9362.689    1.23875E-18
  9365.242   -1.05003E-18
  9367.795   -3.72049E-18
  9370.348   -2.32872E-18
  9372.901   -2.48071E-18
  9375.454    7.68186E-19
  9378.007    6.22518E-19
  9380.560    3.49365E-19
  9383.113    4.67233E-19
  9385.666    1.05304E-19
  9388.219   -8.14465E-20
  9390.772    7.69046E-19
  9393.325   -1.38547E-19
  9395.878    4.64760E-19
  9398.431    1.86378E-18
  9400.984    2.04740E-18
  9403.537    3.77535E-18
  9406.090    3.59943E-18
  9408.643    3.86467E-18
  9411.196    1.37274E-18
  9413.749    8.63270E-19
  9416.302    7.63173E-19
  9418.855    9.36927E-19
  9421.408    1.92674E-18
  9423.961    9.18317E-20
  9426.514    2.46272E-19
  9429.067    6.71361E-19
  9431.620    3.02316E-19
  9434.173   -4.19318E-18
  9436.726   -2.85910E-18
  9439.279   -2.13164E-18
  9441.832    1.71816E-19
  9444.385   -7.29368E-19
  9446.938    9.26794E-19
  9449.491    5.87804E-19
  9452.044   -6.19126E-19
  9454.597    1.01797E-18
  9457.150   -1.01253E-18
  9459.703   -1.34355E-18
  9462.256    3.89006E-20
  9464.809    6.31420E-19
  9467.362   -2.49904E-19
  9469.915    2.20015E-18
  9472.468    2.43568E-18
  9475.021   -1.25046E-18
  9477.574   -6.86660E-20
  9480.127    1.25488E-18
  9482.680    8.16235E-19
  9485.233    4.90645E-19
  9487.786    7.29832E-19
  9490.339   -2.85705E-19
  9492.892   -5.62068E-19
  9495.445   -5.76241E-19
  9497.998   -8.30704E-20
  9500.551    4.60173E-19
  9503.104   -1.46201E-19
  9505.657    9.43388E-19
  9508.210   -6.53450E-19
  9510.763   -4.87903E-19
  9513.316    6.98291E-19
  9515.869    1.25309E-18
  9518.422   -1.56449E-18
  9520.975    4.86699E-19
  9523.528    7.64576E-19
  9526.081    9.83867E-19
  9528.634    1.15790E-18
  9531.187    1.33085E-18
  9533.740    1.32461E-19
  9536.293   -3.81385E-19
  9538.846    1.67333E-18
  9541.399    8.08873E-19
  9543.952    9.57405E-20
  9546.505    6.04428E-19
  9549.058    1.17757E-18
  9551.611    3.61970E-18
  9554.164    1.43136E-18
  9556.717    2.56365E-18
  9559.270    2.34359E-18
  9561.823    2.35309E-18
  9564.376   -1.66806E-18
  9566.929    1.15922E-18
  9569.482    1.89462E-18
  9572.035    1.15690E-18
  9574.588    3.47347E-19
  9577.141    2.46030E-19
  9579.694    3.60699E-19
  9582.247    8.76133E-19
  9584.800    8.66401E-19
  9587.353    3.05642E-19
  9589.906    9.95698E-19
  9592.459    7.62839E-19
  9595.012   -7.75659E-19
  9597.565    5.44889E-19
  9600.118    1.14960E-19
  9602.671    8.79291E-19
  9605.224    1.12533E-18
  9607.777    2.51172E-18
  9610.330    1.08273E-18
  9612.883    6.02885E-19
  9615.436    7.22008E-19
  9617.989    3.24747E-18
  9620.542    1.91054E-18
  9623.095    8.89480E-19
  9625.648   -9.56998E-19
  9628.201    2.31423E-18
  9630.754    1.29111E-18
  9633.307    1.73923E-19
  9635.860    4.98171E-19
  9638.413    1.67022E-18
  9640.966    7.96004E-19
  9643.519   -7.69234E-20
  9646.072    2.67520E-18
  9648.625    1.07125E-18
  9651.178   -5.69687E-19
  9653.731    8.56888E-19
  9656.284    1.00585E-18
  9658.837    9.52524E-19
  9661.390   -3.01931E-19
  9663.943   -1.25512E-18
  9666.496    8.93660E-21
  9669.049   -1.06953E-18
  9671.602    7.33778E-19
  9674.155   -2.05089E-18
  9676.708   -5.27262E-19
  9679.261   -2.23974E-18
  9681.814   -1.66722E-18
  9684.367   -1.72898E-20
  9686.920   -1.08428E-18
  9689.473   -1.36416E-18