#|wavelength|    flux     |
 5500.000    8.07832E-19
  5502.553    8.78090E-19
  5505.106    9.51114E-19
  5507.659    1.02347E-18
  5510.212    1.09335E-18
  5512.765    1.16446E-18
  5515.318    1.23312E-18
  5517.871    1.30254E-18
  5520.424    1.36838E-18
  5522.977    1.43237E-18
  5525.530    1.49081E-18
  5528.083    1.54570E-18
  5530.636    1.60035E-18
  5533.189    1.65432E-18
  5535.742    1.70660E-18
  5538.295    1.75168E-18
  5540.848    1.79241E-18
  5543.401    1.82862E-18
  5545.954    1.86288E-18
  5548.507    1.89300E-18
  5551.060    1.92173E-18
  5553.613    1.94859E-18
  5556.166    1.97469E-18
  5558.719    1.99783E-18
  5561.272    2.02110E-18
  5563.825    2.04495E-18
  5566.378    2.06893E-18
  5568.931    2.08856E-18
  5571.484    2.10359E-18
  5574.037    2.11815E-18
  5576.590    2.13684E-18
  5579.143    2.16030E-18
  5581.696    2.18393E-18
  5584.249    2.20324E-18
  5586.802    2.21737E-18
  5589.355    2.22927E-18
  5591.908    2.24427E-18
  5594.461    2.26404E-18
  5597.014    2.28724E-18
  5599.567    2.30850E-18
  5602.120    2.32582E-18
  5604.673    2.34015E-18
  5607.226    2.35481E-18
  5609.779    2.37064E-18
  5612.332    2.38590E-18
  5614.885    2.39780E-18
  5617.438    2.40548E-18
  5619.991    2.40997E-18
  5622.544    2.41408E-18
  5625.097    2.41698E-18
  5627.650    8.05373E-19
  5630.203    2.31284E-18
#  5632.756        0.00000
  5635.309    1.88713E-18
  5637.862    1.52182E-18
  5640.415    2.06249E-18
  5642.968    2.82711E-18
  5645.521    1.98880E-18
  5648.074    1.83820E-18
  5650.627    1.41880E-18
  5653.180    2.21779E-18
  5655.733    2.17676E-18
  5658.286    2.13492E-18
  5660.839    2.26502E-18
  5663.392    1.20762E-18
  5665.945    1.37990E-18
  5668.498    7.57511E-19
  5671.051    1.93964E-18
  5673.604    1.05984E-18
  5676.157    1.74295E-18
  5678.710    1.92202E-18
  5681.263    1.58200E-18
  5683.816    1.33209E-18
  5686.369    2.09046E-18
  5688.922    2.19152E-18
  5691.475    2.54749E-18
  5694.028    1.62674E-18
  5696.581    9.03527E-19
  5699.134    1.72810E-18
  5701.687    1.51696E-18
  5704.240    1.88816E-18
  5706.793    1.34541E-18
  5709.346    1.85533E-18
  5711.899    2.24505E-18
  5714.452    1.43844E-18
  5717.005    2.07341E-18
  5719.558    1.74447E-18
  5722.111    9.55213E-19
  5724.664    1.74686E-18
  5727.217    1.86672E-18
  5729.770    1.43254E-18
  5732.323    1.72229E-18
  5734.876    1.31488E-18
  5737.429    1.53387E-18
  5739.982    1.39263E-18
  5742.535    1.47860E-18
  5745.088    1.84762E-18
  5747.641    2.19518E-18
  5750.194    1.78813E-18
  5752.747    1.78836E-18
  5755.300    1.53183E-18
  5757.853    1.55271E-18
  5760.406    1.51594E-18
  5762.959    1.92366E-18
  5765.512    3.17661E-18
  5768.065    2.10340E-18
  5770.618    1.77802E-18
  5773.171    1.73692E-18
  5775.724    9.10351E-19
  5778.277    2.53211E-18
  5780.830    1.84183E-18
  5783.383    1.84298E-18
  5785.936    2.22541E-18
  5788.489    2.15478E-18
  5791.042    2.65163E-18
  5793.595    1.88865E-18
  5796.148    2.82285E-18
  5798.701    1.81998E-18
  5801.254    1.99182E-18
  5803.807    2.69934E-18
  5806.360    1.27752E-18
  5808.913    1.63091E-18
  5811.466    1.87984E-18
  5814.019    2.17466E-18
  5816.572    1.64363E-18
  5819.125    1.33691E-18
  5821.678    1.60867E-18
  5824.231    8.77267E-19
  5826.784    2.11211E-18
  5829.337    2.17526E-18
  5831.890    2.04073E-18
  5834.443    1.77054E-18
  5836.996    1.61230E-18
  5839.549    2.17283E-18
  5842.102    1.48393E-18
  5844.655    2.13115E-18
  5847.208    1.37190E-18
  5849.761    2.55877E-18
  5852.314    2.18305E-18
  5854.867    2.32672E-18
  5857.420    2.75215E-18
  5859.973    1.72178E-18
  5862.526    2.16710E-18
  5865.079    1.23528E-18
  5867.632    2.28042E-18
  5870.185    1.99342E-18
  5872.738    2.10432E-18
  5875.291    1.79348E-18
  5877.844    1.84587E-18
  5880.397    9.36193E-19
  5882.950    2.04323E-18
  5885.503    2.71001E-18
  5888.056    1.97361E-18
  5890.609    1.98202E-18
  5893.162    8.86264E-19
  5895.715    1.43144E-18
  5898.268    1.46339E-18
  5900.821    2.34886E-18
  5903.374    2.35733E-18
  5905.927    2.23133E-18
  5908.480    1.58670E-18
  5911.033    1.81322E-18
  5913.586    1.36034E-18
  5916.139    2.38730E-18
  5918.692    1.80916E-18
  5921.245    2.26522E-18
  5923.798    1.67992E-18
  5926.351    9.03908E-19
  5928.904    2.26000E-18
  5931.457    2.14927E-18
  5934.010    1.44200E-18
  5936.563    2.56127E-18
  5939.116    3.10617E-18
  5941.669    2.17218E-18
  5944.222    1.02100E-18
  5946.775    1.66710E-18
  5949.328    2.21505E-18
  5951.881    1.63666E-18
  5954.434    1.73000E-18
  5956.987    1.13453E-18
  5959.540    1.84701E-18
  5962.093    1.79546E-18
  5964.646    1.61211E-18
  5967.199    1.86862E-18
  5969.752    1.42655E-18
  5972.305    1.02363E-18
  5974.858    1.34520E-18
  5977.411    2.56215E-18
  5979.964    2.42487E-18
  5982.517    1.77316E-18
  5985.070    2.64144E-18
  5987.623    1.13439E-18
  5990.176    1.70937E-18
  5992.729    1.42970E-18
  5995.282    1.82995E-18
  5997.835    1.96908E-18
  6000.388    1.91963E-18
  6002.941    1.92790E-18
  6005.494    1.94113E-18
  6008.047    1.77823E-18
  6010.600    1.72406E-18
  6013.153    1.98640E-18
  6015.706    1.44485E-18
  6018.259    1.42649E-18
  6020.812    2.49053E-18
  6023.365    1.58247E-18
  6025.918    1.98769E-18
  6028.471    1.57025E-18
  6031.024    2.03477E-18
  6033.577    2.28869E-18
  6036.130    2.08899E-18
  6038.683    2.09940E-18
  6041.236    1.89382E-18
  6043.789    2.13456E-18
  6046.342    1.60791E-18
  6048.895    1.96385E-18
  6051.448    2.18317E-18
  6054.001    1.79500E-18
  6056.554    1.47059E-18
  6059.107    1.58053E-18
  6061.660    2.02744E-18
  6064.213    1.70710E-18
  6066.766    1.17578E-18
  6069.319    2.13312E-18
  6071.872    1.61825E-18
  6074.425    2.02396E-18
  6076.978    1.41244E-18
  6079.531    1.63950E-18
  6082.084    2.15137E-18
  6084.637    1.54164E-18
  6087.190    1.70172E-18
  6089.743    1.55527E-18
  6092.296    1.25981E-18
  6094.849    1.72358E-18
  6097.402    1.94875E-18
  6099.955    1.46361E-18
  6102.508    1.90967E-18
  6105.061    1.74146E-18
  6107.614    2.03189E-18
  6110.167    1.53228E-18
  6112.720    2.62024E-18
  6115.273    1.79285E-18
  6117.826    1.88393E-18
  6120.379    2.03160E-18
  6122.932    2.10483E-18
  6125.485    1.80113E-18
  6128.038    2.30054E-18
  6130.591    1.49032E-18
  6133.144    1.27941E-18
  6135.697    1.87508E-18
  6138.250    1.74529E-18
  6140.803    1.81655E-18
  6143.356    1.04539E-18
  6145.909    2.27202E-18
  6148.462    2.72871E-18
  6151.015    2.21393E-18
  6153.568    1.29061E-18
  6156.121    2.15604E-18
  6158.674    1.87598E-18
  6161.227    1.71462E-18
  6163.780    1.77315E-18
  6166.333    2.55097E-18
  6168.886    2.57466E-18
  6171.439    1.76575E-18
  6173.992    2.12622E-18
  6176.545    1.79772E-18
  6179.098    1.90111E-18
  6181.651    2.12457E-18
  6184.204    2.12843E-18
  6186.757    2.03499E-18
  6189.310    1.51229E-18
  6191.863    1.19504E-18
  6194.416    1.41976E-18
  6196.969    1.18910E-18
  6199.522    1.96820E-18
  6202.075    1.88403E-18
  6204.628    1.32179E-18
  6207.181    2.27883E-18
  6209.734    1.81466E-18
  6212.287    2.12055E-18
  6214.840    2.06442E-18
  6217.393    1.86668E-18
  6219.946    1.94971E-18
  6222.499    1.91236E-18
  6225.052    1.37707E-18
  6227.605    1.45079E-18
  6230.158    1.82610E-18
  6232.711    1.64297E-18
  6235.264    2.35508E-18
  6237.817    1.95961E-18
  6240.370    2.50674E-18
  6242.923    2.26256E-18
  6245.476    1.54906E-18
  6248.029    1.41943E-18
  6250.582    2.33100E-18
  6253.135    1.67543E-18
  6255.688    1.62088E-18
  6258.241    1.41105E-18
  6260.794    1.85255E-18
  6263.347    1.82778E-18
  6265.900    1.85346E-18
  6268.453    1.69042E-18
  6271.006    2.03405E-18
  6273.559    1.70228E-18
  6276.112    2.16202E-18
  6278.665    1.70253E-18
  6281.218    1.70907E-18
  6283.771    1.71976E-18
  6286.324    1.73506E-18
  6288.877    1.75021E-18
  6291.430    1.76450E-18
  6293.983    1.77738E-18
  6296.536    1.79042E-18
  6299.089    1.80351E-18
  6301.642    1.81580E-18
  6304.195    1.82885E-18
  6306.748    1.84160E-18
  6309.301    1.85394E-18
  6311.854    1.86286E-18
  6314.407    1.40159E-18
  6316.960    1.88861E-18
  6319.513    1.39347E-18
  6322.066    6.26297E-19
  6324.619    1.11925E-18
  6327.172    1.54979E-18
  6329.725    8.27628E-19
  6332.278    1.29424E-18
  6334.831    1.82512E-18
  6337.384    2.14825E-18
  6339.937    1.56227E-18
  6342.490    1.46022E-18
  6345.043    2.24175E-18
  6347.596    2.33293E-18
  6350.149    1.76966E-18
  6352.702    4.70315E-19
  6355.255    2.38742E-19
  6357.808    2.54524E-18
  6360.361    2.00815E-18
  6362.914    3.15061E-18
  6365.467    3.10840E-18
  6368.020    2.49833E-18
  6370.573    2.05080E-18
#  6373.126        0.00000
  6375.679    1.94715E-18
  6378.232    1.19583E-18
  6380.785    2.70398E-18
  6383.338    1.59477E-18
  6385.891    2.25732E-18
  6388.444    2.25760E-18
  6390.997    2.17051E-18
  6393.550    1.86256E-18
  6396.103    1.23627E-18
  6398.656    1.46405E-18
  6401.209    1.72900E-18
  6403.762    1.50118E-18
  6406.315    2.12767E-18
  6408.868    1.62577E-18
  6411.421    2.74390E-18
  6413.974    1.40533E-18
  6416.527    1.82459E-18
  6419.080    2.13737E-18
  6421.633    2.25714E-18
  6424.186    2.15304E-18
  6426.739    2.00547E-18
  6429.292    1.41237E-18
  6431.845    1.26031E-18
  6434.398    1.82395E-18
  6436.951    2.32193E-18
  6439.504    2.10103E-18
  6442.057    1.59124E-18
  6444.610    1.48482E-18
  6447.163    1.61188E-18
  6449.716    1.56603E-18
  6452.269    1.29790E-18
  6454.822    1.47015E-18
  6457.375    1.43748E-18
  6459.928    1.64093E-18
  6462.481    1.98027E-18
  6465.034    1.98507E-18
  6467.587    1.80815E-18
  6470.140    2.37162E-18
  6472.693    2.29828E-18
  6475.246    1.68001E-18
  6477.799    2.12382E-18
  6480.352    2.11921E-18
  6482.905    2.05625E-18
  6485.458    2.19710E-18
  6488.011    1.23921E-18
  6490.564    1.70688E-18
  6493.117    2.56769E-18
  6495.670    2.34363E-18
  6498.223    1.27506E-18
  6500.776    2.12549E-18
  6503.329    1.99434E-18
  6505.882    2.03610E-18
  6508.435    1.99041E-18
  6510.988    2.15711E-18
  6513.541    1.51910E-18
  6516.094    2.37278E-18
  6518.647    1.94589E-18
  6521.200    1.62594E-18
  6523.753    1.21412E-18
  6526.306    2.30702E-18
  6528.859    2.48075E-18
  6531.412    2.58594E-18
  6533.965    1.41169E-18
  6536.518    1.86475E-18
  6539.071    1.56751E-18
  6541.624    1.49181E-18
  6544.177    1.80161E-18
  6546.730    1.48540E-18
  6549.283    2.12080E-18
  6551.836    2.26873E-18
  6554.389    2.04868E-18
  6556.942    1.81426E-18
  6559.495    2.33339E-18
  6562.048    1.40238E-18
  6564.601    1.82586E-18
  6567.154    9.92371E-19
  6569.707    1.47471E-18
  6572.260    1.86270E-18
  6574.813    1.78741E-18
  6577.366    2.19615E-18
  6579.919    1.57054E-18
  6582.472    2.41757E-18
  6585.025    2.04284E-18
  6587.578    1.89385E-18
  6590.131    1.81765E-18
  6592.684    2.40590E-18
  6595.237    1.67823E-18
  6597.790    1.54271E-18
  6600.343    1.68261E-18
  6602.896    2.82837E-18
  6605.449    1.63241E-18
  6608.002    1.72010E-18
  6610.555    1.39549E-18
  6613.108    1.54051E-18
  6615.661    2.28629E-18
  6618.214    1.73231E-18
  6620.767    2.19146E-18
  6623.320    2.06958E-18
  6625.873    1.50634E-18
  6628.426    1.75687E-18
  6630.979    2.11442E-18
  6633.532    2.25363E-18
  6636.085    1.53442E-18
  6638.638    2.18782E-18
  6641.191    2.10198E-18
  6643.744    2.04396E-18
  6646.297    1.69611E-18
  6648.850    1.90114E-18
  6651.403    2.83424E-18
  6653.956    2.55692E-18
  6656.509    2.73475E-18
  6659.062    1.80620E-18
  6661.615    2.20391E-18
  6664.168    1.84997E-18
  6666.721    2.06572E-18
  6669.274    1.23795E-18
  6671.827    1.66794E-18
  6674.380    1.90366E-18
  6676.933    1.77807E-18
  6679.486    2.46975E-18
  6682.039    2.10601E-18
  6684.592    2.01120E-18
  6687.145    1.72429E-18
  6689.698    1.54711E-18
  6692.251    1.45746E-18
  6694.804    1.90492E-18
  6697.357    2.20508E-18
  6699.910    2.44364E-18
  6702.463    2.97757E-18
  6705.016    3.77461E-18
  6707.569    4.98937E-18
  6710.122    4.41230E-18
  6712.675    4.17340E-18
  6715.228    2.46235E-18
  6717.781    2.80405E-18
  6720.334    2.14742E-18
  6722.887    1.52148E-18
  6725.440    2.32326E-18
  6727.993    1.83098E-18
  6730.546    1.77758E-18
  6733.099    2.56246E-18
  6735.652    2.51562E-18
  6738.205    2.88635E-18
  6740.758    2.22540E-18
  6743.311    1.92971E-18
  6745.864    2.13574E-18
  6748.417    1.58499E-18
  6750.970    1.65545E-18
  6753.523    1.95713E-18
  6756.076    1.71374E-18
  6758.629    1.98179E-18
  6761.182    2.11576E-18
  6763.735    2.55976E-18
  6766.288    2.13069E-18
  6768.841    1.78542E-18
  6771.394    2.40271E-18
  6773.947    2.02108E-18
  6776.500    1.90566E-18
  6779.053    2.07180E-18
  6781.606    2.27131E-18
  6784.159    1.33077E-18
  6786.712    1.80331E-18
  6789.265    1.98997E-18
  6791.818    2.28919E-18
  6794.371    1.99207E-18
  6796.924    1.52642E-18
  6799.477    1.87012E-18
  6802.030    2.38438E-18
  6804.583    2.47636E-18
  6807.136    2.73623E-18
  6809.689    2.28883E-18
  6812.242    2.58388E-18
  6814.795    2.66832E-18
  6817.348    2.39712E-18
  6819.901    2.16806E-18
  6822.454    2.41562E-18
  6825.007    2.05410E-18
  6827.560    8.43744E-19
  6830.113    1.93793E-18
  6832.666    1.58947E-18
  6835.219    2.04660E-18
  6837.772    1.63064E-18
  6840.325    1.91181E-18
  6842.878    2.14675E-18
  6845.431    1.66983E-18
  6847.984    2.33767E-18
  6850.537    2.50000E-18
  6853.090    2.26030E-18
  6855.643    2.32263E-18
  6858.196    2.84275E-18
  6860.749    3.55082E-18
  6863.302    3.22743E-18
  6865.855    1.27882E-18
  6868.408    3.03213E-18
  6870.961    2.84339E-18
  6873.514    1.62975E-18
  6876.067    2.51074E-18
  6878.620    1.90452E-18
  6881.173    2.48793E-18
  6883.726    2.96619E-18
  6886.279    2.36062E-18
  6888.832    2.83275E-18
  6891.385    1.99921E-18
  6893.938    1.83019E-18
  6896.491    2.23614E-18
  6899.044    1.31336E-18
  6901.597    1.65977E-18
  6904.150    2.14701E-18
  6906.703    2.26613E-18
  6909.256    1.66483E-18
  6911.809    2.02811E-18
  6914.362    1.85783E-18
  6916.915    2.06427E-18
  6919.468    2.97296E-18
  6922.021    2.43003E-18
  6924.574    2.48478E-18
  6927.127    2.22726E-18
  6929.680    2.57092E-18
  6932.233    2.40326E-18
  6934.786    2.09666E-18
  6937.339    3.18478E-18
  6939.892    2.28823E-18
  6942.445    2.47030E-18
  6944.998    2.00684E-18
  6947.551    2.40756E-18
  6950.104    2.15798E-18
  6952.657    2.22891E-18
  6955.210    3.07020E-18
  6957.763    3.17262E-18
  6960.316    2.58307E-18
  6962.869    2.68049E-18
  6965.422    2.28161E-18
  6967.975    3.13593E-18
  6970.528    2.31147E-18
  6973.081    1.34862E-18
  6975.634    2.31224E-18
  6978.187    2.52109E-18
  6980.740    1.90670E-18
  6983.293    2.84793E-18
  6985.846    2.27816E-18
  6988.399    2.11236E-18
  6990.952    2.00879E-18
  6993.505    1.50269E-18
  6996.058    2.47168E-18
  6998.611    2.12102E-18
  7001.164    2.62047E-18
  7003.717    2.62445E-18
  7006.270    2.35584E-18
  7008.823    1.97909E-18
  7011.376    2.26500E-18
  7013.929    2.61217E-18
  7016.482    3.02665E-18
#  7019.035        0.00000
  7021.588    2.77940E-18
  7024.141    2.44438E-18
  7026.694    2.00716E-18
  7029.247    3.02633E-18
  7031.800    2.92143E-18
  7034.353    3.03697E-18
  7036.906    2.93964E-18
  7039.459    2.38842E-18
  7042.012    3.32844E-18
  7044.565    2.20192E-18
  7047.118    2.68213E-18
  7049.671    3.06596E-18
  7052.224    2.87212E-18
  7054.777    3.40036E-18
  7057.330    3.38681E-18
  7059.883    2.32609E-18
  7062.436    2.68467E-18
  7064.989    3.37253E-18
  7067.542    2.67587E-18
  7070.095    1.93536E-18
  7072.648    1.95322E-18
  7075.201    2.12451E-18
  7077.754    1.62783E-18
  7080.307    2.00470E-18
  7082.860    2.30162E-18
  7085.413    2.37317E-18
  7087.966    2.21204E-18
  7090.519    2.09365E-18
  7093.072    2.78216E-18
  7095.625    2.95165E-18
  7098.178    2.83120E-18
  7100.731    2.79956E-18
  7103.284    2.51541E-18
  7105.837    2.78727E-18
  7108.390    2.55860E-18
  7110.943    3.03018E-18
  7113.496    2.73133E-18
  7116.049    2.29298E-18
  7118.602    2.59299E-18
  7121.155    2.89682E-18
  7123.708    2.47390E-18
  7126.261    2.29912E-18
  7128.814    2.68789E-18
  7131.367    2.03691E-18
  7133.920    1.63771E-18
  7136.473    2.14727E-18
  7139.026    1.56282E-18
  7141.579    1.72041E-18
  7144.132    1.90475E-18
  7146.685    2.05613E-18
  7149.238    2.12674E-18
  7151.791    1.86872E-18
  7154.344    2.25775E-18
  7156.897    2.25213E-18
  7159.450    2.82698E-18
  7162.003    2.76076E-18
  7164.556    2.29081E-18
  7167.109    2.92921E-18
  7169.662    2.64939E-18
  7172.215    2.52552E-18
  7174.768    2.94718E-18
  7177.321    2.53707E-18
  7179.874    2.55524E-18
  7182.427    2.26313E-18
  7184.980    2.58703E-18
  7187.533    2.88436E-18
  7190.086    3.25218E-18
  7192.639    2.55897E-18
  7195.192    3.43218E-18
  7197.745    2.52164E-18
  7200.298    3.19637E-18
  7202.851    3.37046E-18
  7205.404    2.52799E-18
  7207.957    3.29643E-18
  7210.510    2.43240E-18
  7213.063    2.71004E-18
  7215.616    2.50818E-18
  7218.169    2.45818E-18
  7220.722    3.58689E-18
  7223.275    3.33506E-18
  7225.828    2.49345E-18
  7228.381    3.57540E-18
  7230.934    3.12336E-18
  7233.487    3.33849E-18
  7236.040    2.73686E-18
  7238.593    3.41257E-18
  7241.146    3.20830E-18
  7243.699    3.27054E-18
  7246.252    3.51139E-18
  7248.805    2.05142E-18
  7251.358    2.53489E-18
  7253.911    3.26795E-18
  7256.464    3.03820E-18
  7259.017    2.73583E-18
  7261.570    2.89696E-18
  7264.123    2.54986E-18
  7266.676    2.14006E-18
  7269.229    2.88153E-18
  7271.782    2.80967E-18
  7274.335    4.55899E-18
  7276.888    3.21882E-18
  7279.441    2.66300E-18
  7281.994    3.27482E-18
  7284.547    3.32542E-18
  7287.100    3.65023E-18
  7289.653    3.03092E-18
  7292.206    2.69852E-18
  7294.759    2.35860E-18
  7297.312    2.64301E-18
  7299.865    2.82520E-18
  7302.418    3.06490E-18
  7304.971    2.67452E-18
  7307.524    2.83573E-18
  7310.077    3.21397E-18
  7312.630    2.01792E-18
  7315.183    2.36225E-18
  7317.736    3.42185E-18
  7320.289    3.23429E-18
  7322.842    3.18616E-18
  7325.395    3.00048E-18
  7327.948    2.54808E-18
  7330.501    2.37746E-18
  7333.054    2.04913E-18
  7335.607    2.86413E-18
  7338.160    1.48834E-18
  7340.713    3.34022E-18
  7343.266    3.49076E-18
  7345.819    1.88117E-18
  7348.372    2.30501E-18
  7350.925    3.30145E-18
  7353.478    2.37701E-18
  7356.031    2.53262E-18
  7358.584    3.30171E-18
  7361.137    2.38606E-18
  7363.690    1.67786E-18
  7366.243    3.03525E-18
  7368.796    2.26968E-18
  7371.349    2.13542E-18
  7373.902    2.41936E-18
  7376.455    2.38211E-18
  7379.008    2.48247E-18
  7381.561    2.86512E-18
  7384.114    2.72908E-18
  7386.667    3.83491E-18
  7389.220    2.22811E-18
  7391.773    3.16996E-18
  7394.326    2.39657E-18
  7396.879    2.97873E-18
  7399.432    3.38763E-18
  7401.985    1.80693E-18
  7404.538    2.18912E-18
  7407.091    2.80330E-18
  7409.644    1.76874E-18
  7412.197    3.42419E-18
  7414.750    3.18928E-18
  7417.303    2.69277E-18
  7419.856    2.83983E-18
  7422.409    2.29648E-18
  7424.962    2.75247E-18
  7427.515    3.28482E-18
  7430.068    2.56760E-18
  7432.621    1.76632E-18
  7435.174    2.30384E-18
  7437.727    1.97243E-18
  7440.280    2.40897E-18
  7442.833    3.30766E-18
  7445.386    3.17242E-18
  7447.939    3.47377E-18
  7450.492    3.12090E-18
  7453.045    3.13594E-18
  7455.598    2.78529E-18
  7458.151    3.03371E-18
  7460.704    2.66858E-18
  7463.257    2.86294E-18
  7465.810    2.52067E-18
  7468.363    2.06727E-18
  7470.916    3.16416E-18
  7473.469    3.06406E-18
  7476.022    3.07882E-18
  7478.575    2.23073E-18
  7481.128    3.69491E-18
  7483.681    3.06059E-18
  7486.234    3.31602E-18
  7488.787    3.19748E-18
  7491.340    3.70710E-18
  7493.893    3.09543E-18
  7496.446    2.37855E-18
  7498.999    2.92543E-18
  7501.552    2.49170E-18
  7504.105    2.72783E-18
  7506.658    3.05011E-18
  7509.211    2.79540E-18
  7511.764    2.45120E-18
  7514.317    3.59998E-18
  7516.870    3.97435E-18
  7519.423    2.92577E-18
#  7521.976        0.00000
  7524.529    4.29804E-18
  7527.082    3.80555E-18
  7529.635    3.20989E-18
  7532.188    3.00972E-18
  7534.741    2.56589E-18
  7537.294    2.75061E-18
  7539.847    2.97566E-18
  7542.400    2.51440E-18
  7544.953    2.95728E-18
  7547.506    3.02279E-18
  7550.059    2.78638E-18
  7552.612    3.39418E-18
  7555.165    3.39035E-18
  7557.718    2.75135E-18
  7560.271    2.73165E-18
  7562.824    1.99768E-18
  7565.377    3.13812E-18
  7567.930    4.02129E-18
  7570.483    1.83745E-18
  7573.036    2.96435E-18
  7575.589    2.83702E-18
  7578.142    2.50659E-18
  7580.695    2.13725E-18
  7583.248    2.20676E-18
  7585.801    3.22547E-18
  7588.354    1.91602E-18
  7590.907    3.05144E-18
  7593.460    4.00565E-18
  7596.013    4.45089E-18
  7598.566    1.96257E-18
  7601.119    3.08192E-18
  7603.672    2.49649E-18
  7606.225    3.00717E-18
  7608.778    2.13167E-18
  7611.331    3.31954E-18
  7613.884    2.91803E-18
  7616.437    2.17549E-18
  7618.990    2.85085E-18
  7621.543    2.15229E-18
  7624.096    3.26422E-18
  7626.649    3.36480E-18
  7629.202    3.34569E-18
  7631.755    4.16529E-18
  7634.308    4.37945E-18
  7636.861    3.06615E-18
  7639.414    3.24420E-18
  7641.967    2.90277E-18
  7644.520    2.57640E-18
  7647.073    2.11676E-18
  7649.626    2.56479E-18
  7652.179    2.91182E-18
  7654.732    3.28212E-18
  7657.285    2.85873E-18
  7659.838    3.17844E-18
  7662.391    2.64068E-18
  7664.944    3.17691E-18
  7667.497    3.48346E-18
  7670.050    3.06464E-18
  7672.603    2.86489E-18
  7675.156    3.53865E-18
  7677.709    2.75206E-18
  7680.262    3.95838E-18
  7682.815    2.19218E-18
  7685.368    3.16540E-18
  7687.921    1.80096E-18
  7690.474    1.64398E-18
  7693.027    1.69352E-18
  7695.580    2.61342E-18
  7698.133    2.83909E-18
  7700.686    2.33920E-18
  7703.239    2.78591E-18
  7705.792    1.88419E-18
  7708.345    2.19247E-18
  7710.898    2.92702E-18
  7713.451    2.81123E-18
  7716.004    4.99735E-18
  7718.557    3.70372E-18
  7721.110    3.23560E-18
  7723.663    4.37612E-18
  7726.216    3.23892E-18
  7728.769    2.28662E-18
  7731.322    2.38792E-18
  7733.875    2.91328E-18
  7736.428    2.92917E-18
  7738.981    1.81270E-18
  7741.534    9.68140E-19
  7744.087    1.31012E-18
  7746.640    1.29836E-18
  7749.193    2.16341E-18
  7751.746    2.15962E-18
  7754.299    2.24115E-18
  7756.852    1.20978E-18
  7759.405    2.64315E-18
  7761.958    3.35729E-18
  7764.511    1.31560E-18
  7767.064    1.56409E-18
  7769.617    4.33998E-18
  7772.170    3.26800E-18
  7774.723    2.20693E-18
  7777.276    4.22197E-18
  7779.829    3.17764E-18
  7782.382    2.95650E-18
  7784.935    4.65053E-18
  7787.488    2.97109E-18
  7790.041    2.05515E-18
  7792.594    1.81273E-18
  7795.147    7.03154E-19
  7797.700    2.33209E-18
  7800.253    2.04580E-18
  7802.806    3.23073E-18
  7805.359    2.97065E-18
  7807.912    3.37116E-18
  7810.465    2.25619E-18
  7813.018    3.20085E-18
  7815.571    3.10787E-18
  7818.124    2.98800E-18
  7820.677    3.69663E-18
  7823.230    1.21724E-18
  7825.783    2.02821E-18
  7828.336    2.77015E-18
  7830.889    1.77704E-18
  7833.442    2.84453E-18
  7835.995    3.36838E-18
  7838.548    2.77702E-18
  7841.101    2.26598E-18
  7843.654    2.22167E-18
  7846.207    4.31397E-18
  7848.760    1.97727E-18
  7851.313    3.62741E-18
  7853.866    3.86938E-18
  7856.419    3.64652E-18
  7858.972    4.00449E-18
  7861.525    2.72841E-18
  7864.078    2.11442E-18
  7866.631    2.73959E-18
  7869.184    4.12413E-18
  7871.737    2.76755E-18
  7874.290    2.69677E-18
  7876.843    3.73356E-18
  7879.396    2.31287E-18
  7881.949    2.60872E-18
  7884.502    3.96623E-18
  7887.055    2.43344E-18
  7889.608    2.77603E-18
  7892.161    2.60480E-18
  7894.714    2.56494E-18
  7897.267    1.81488E-18
  7899.820    1.51414E-18
  7902.373    3.60261E-18
  7904.926    3.02477E-18
  7907.479    2.89031E-18
  7910.032    2.56241E-18
  7912.585    8.01976E-19
  7915.138    1.55055E-18
  7917.691    2.80159E-18
  7920.244    1.36018E-18
  7922.797    1.55162E-18
  7925.350    3.10864E-18
  7927.903    2.27284E-18
  7930.456    3.16481E-18
  7933.009    2.82844E-18
  7935.562    2.40453E-18
  7938.115    2.05509E-18
  7940.668    1.82860E-18
  7943.221    3.65287E-18
  7945.774    2.14118E-18
  7948.327    2.46990E-18
  7950.880    3.05128E-18
  7953.433    3.12708E-18
  7955.986    3.22540E-18
  7958.539    2.81830E-18
  7961.092    5.08924E-18
  7963.645    4.58304E-18
  7966.198    3.38025E-18
  7968.751    3.69205E-18
  7971.304    3.45402E-18
  7973.857    2.46967E-18
  7976.410    2.90770E-18
  7978.963    3.12948E-18
#  7981.516        0.00000
  7984.069    3.05803E-18
  7986.622    4.39997E-18
  7989.175    2.79789E-18
  7991.728    2.80113E-18
  7994.281    3.08102E-18
  7996.834    2.65214E-18
  7999.387    3.14498E-18
  8001.940    3.31139E-18
  8004.493    3.73184E-18
  8007.046    3.46673E-18
  8009.599    2.97666E-18
  8012.152    2.40134E-18
  8014.705    3.41584E-18
  8017.258    2.34939E-18
  8019.811    2.39261E-18
  8022.364    3.69709E-18
  8024.917    3.83286E-18
  8027.470    3.16614E-18
  8030.023    2.05271E-18
  8032.576    2.55921E-18
  8035.129    1.96729E-18
  8037.682    2.12216E-18
  8040.235    2.80389E-18
  8042.788    3.21566E-18
  8045.341    2.73193E-18
  8047.894    2.80914E-18
  8050.447    2.63236E-18
  8053.000    3.66303E-18
  8055.553    3.85292E-18
  8058.106    3.03890E-18
  8060.659    2.04030E-18
  8063.212    2.54936E-18
  8065.765    3.27686E-18
  8068.318    2.13172E-18
  8070.871    2.33264E-18
  8073.424    2.33753E-18
  8075.977    1.66639E-18
  8078.530    2.19280E-18
  8081.083    2.20378E-18
  8083.636    3.94853E-18
  8086.189    2.56971E-18
  8088.742    3.79439E-18
  8091.295    4.36613E-18
  8093.848    3.40851E-18
  8096.401    3.94749E-18
  8098.954    2.64248E-18
  8101.507    4.94134E-18
  8104.060    2.59754E-18
  8106.613    4.01638E-18
  8109.166    1.69792E-18
  8111.719    2.34857E-18
  8114.272    2.30477E-18
  8116.825    2.95027E-18
  8119.378    2.29273E-18
  8121.931    2.81178E-18
  8124.484    2.66908E-18
  8127.037    2.66341E-18
  8129.590    2.93244E-18
  8132.143    2.83115E-18
  8134.696    4.27829E-18
  8137.249    3.98456E-18
  8139.802    2.90278E-18
  8142.355    3.50199E-18
  8144.908    3.12933E-18
  8147.461    1.83719E-18
  8150.014    2.45455E-18
  8152.567    2.00266E-18
  8155.120    1.77116E-18
  8157.673    1.81171E-18
  8160.226    2.12571E-18
  8162.779    2.69172E-18
  8165.332    1.94312E-18
  8167.885    2.28124E-18
  8170.438    2.91384E-18
  8172.991    3.23456E-18
  8175.544    3.18972E-18
  8178.097    4.14934E-18
  8180.650    3.89273E-18
  8183.203    3.22499E-18
  8185.756    3.49639E-18
  8188.309    3.29281E-18
  8190.862    1.77072E-18
  8193.415    2.02087E-18
  8195.968    2.02660E-18
  8198.521    2.51820E-18
  8201.074    2.08045E-18
  8203.627    2.46691E-18
  8206.180    3.55802E-18
  8208.733    3.07452E-18
  8211.286    3.57901E-18
  8213.839    3.38768E-18
  8216.392    3.45074E-18
  8218.945    3.66375E-18
  8221.498    3.25314E-18
  8224.051    2.54711E-18
  8226.604    1.93045E-18
  8229.157    2.30977E-18
  8231.710    2.27241E-18
  8234.263    3.05554E-18
  8236.816    2.70690E-18
  8239.369    3.31980E-18
  8241.922    4.23984E-18
  8244.475    3.75395E-18
  8247.028    3.65079E-18
  8249.581    3.13514E-18
  8252.134    3.06759E-18
  8254.687    2.53781E-18
  8257.240    2.67060E-18
  8259.793    1.43713E-18
  8262.346    1.84436E-18
  8264.899    3.26114E-18
  8267.452    2.04296E-18
  8270.005    2.99388E-18
  8272.558    3.67040E-18
  8275.111    3.03390E-18
  8277.664    4.69531E-18
  8280.217    3.03242E-18
  8282.770    4.40344E-18
  8285.323    4.07782E-18
  8287.876    2.35936E-18
  8290.429    1.66518E-18
  8292.982    4.59383E-18
  8295.535    1.37383E-18
  8298.088    8.47414E-19
  8300.641    2.30777E-18
  8303.194    8.70808E-19
  8305.747    8.68269E-19
  8308.300    2.96722E-18
  8310.853    2.94561E-18
  8313.406    2.98494E-18
  8315.959    3.50847E-18
  8318.512    4.24439E-18
  8321.065    4.13049E-18
  8323.618    2.94818E-18
  8326.171    3.97767E-18
  8328.724    3.16438E-18
  8331.277    2.74971E-18
  8333.830    2.26317E-19
#  8336.383        0.00000
  8338.936    2.04435E-18
  8341.489    2.38263E-18
  8344.042    3.16603E-18
  8346.595    2.19295E-18
  8349.148    2.67618E-18
  8351.701    3.46776E-18
  8354.254    2.65025E-18
  8356.807    2.88188E-18
  8359.360    3.11324E-18
  8361.913    3.93196E-18
  8364.466    2.27509E-18
  8367.019    3.91242E-18
  8369.572    2.42076E-18
  8372.125    2.70331E-18
  8374.678    2.98691E-18
  8377.231    3.27126E-18
  8379.784    3.55579E-18
  8382.337    3.83974E-18
  8384.890    3.41178E-18
#  8387.443        0.00000
  8389.996    3.52516E-18
  8392.549    3.57880E-18
  8395.102    3.63056E-18
  8397.655    3.68073E-18
  8400.208    3.72969E-18
  8402.761    3.77786E-18
  8405.314    3.82592E-18
  8407.867    4.15702E-18
  8410.420    3.92691E-18
  8412.973    4.43860E-18
  8415.526    4.40638E-18
  8418.079    2.19366E-18
  8420.632    2.18623E-18
  8423.185    2.17985E-18
  8425.738    2.17428E-18
  8428.291    2.16913E-18
  8430.844    2.16396E-18
  8433.397    2.15833E-18
  8435.950    3.18332E-18
  8438.503    2.23643E-18
  8441.056    2.39683E-18
  8443.609    2.55514E-18
  8446.162    2.71104E-18
  8448.715    2.86443E-18
  8451.268    3.01536E-18
  8453.821    3.16410E-18
  8456.374    3.31118E-18
  8458.927    3.45741E-18
  8461.480    3.60386E-18
  8464.033    3.38764E-18
  8466.586    3.17546E-18
  8469.139    2.96734E-18
  8471.692    2.38161E-18
  8474.245    2.28751E-18
  8476.798    2.51115E-18
  8479.351    1.86827E-18
  8481.904    2.08757E-18
  8484.457    3.83769E-18
  8487.010    4.50109E-18
  8489.563    4.00853E-18
  8492.116    3.68832E-18
  8494.669    5.16520E-18
  8497.222    1.79452E-18
  8499.775    2.91491E-18
  8502.328    2.93564E-18
  8504.881    2.81461E-18
  8507.434    1.82085E-18
  8509.987    2.13713E-18
  8512.540    1.74834E-18
  8515.093    1.68806E-18
  8517.646    1.72696E-18
  8520.199    1.68810E-18
  8522.752    2.48356E-18
  8525.305    2.11128E-18
  8527.858    2.46249E-18
  8530.411    4.14063E-18
  8532.964    4.48205E-18
  8535.517    4.51016E-18
  8538.070    4.20882E-18
  8540.623    3.43196E-18
  8543.176    3.83767E-18
  8545.729    3.55651E-18
  8548.282    1.86619E-18
  8550.835    2.41150E-18
  8553.388    3.02020E-18
  8555.941    1.94583E-18
  8558.494    1.85415E-18
  8561.047    2.28465E-18
  8563.600    3.73944E-18
  8566.153    4.45636E-18
  8568.706    4.19771E-18
  8571.259    3.94137E-18
  8573.812    3.38798E-18
  8576.365    2.16941E-18
  8578.918    2.14673E-18
  8581.471    2.20080E-18
  8584.024    1.62025E-18
  8586.577    1.93160E-18
  8589.130    3.12368E-18
  8591.683    3.79424E-18
  8594.236    3.50919E-18
  8596.789    3.92541E-18
  8599.342    4.50763E-18
  8601.895    4.44772E-18
  8604.448    2.44870E-18
  8607.001    2.79758E-18
  8609.554    1.83697E-18
  8612.107    3.02641E-18
  8614.660    3.39423E-18
  8617.213    1.74459E-18
  8619.766    1.24839E-18
  8622.319    3.76181E-19
  8624.872    2.63235E-18
  8627.425    2.10029E-18
  8629.978    3.52384E-18
  8632.531    1.36319E-18
  8635.084    2.55186E-18
  8637.637    2.22421E-18
  8640.190    2.30436E-18
  8642.743    2.38401E-18
  8645.296    2.46253E-18
  8647.849    2.53943E-18
  8650.402    2.61440E-18
  8652.955    2.68728E-18
  8655.508    2.75817E-18
  8658.061    2.15734E-18
  8660.614    2.14020E-18
  8663.167    2.12283E-18
  8665.720    2.10560E-18
  8668.273    2.08894E-18
  8670.826    2.07323E-18
  8673.379    2.05869E-18
  8675.932    2.04554E-18
  8678.485    1.93957E-18
  8681.038    3.76571E-18
  8683.591    2.63931E-18
  8686.144    4.21853E-18
  8688.697    5.32650E-18
  8691.250    3.60243E-18
  8693.803    3.25327E-18
  8696.356    3.34305E-18
  8698.909    3.61264E-18
  8701.462    3.49599E-18
  8704.015    3.12104E-18
  8706.568    2.67838E-18
  8709.121    2.13027E-18
  8711.674    1.52457E-18
  8714.227    2.49110E-18
  8716.780    2.95214E-18
  8719.333    2.74030E-18
  8721.886    2.28214E-18
  8724.439    6.69630E-19
  8726.992    1.87658E-18
  8729.545    1.26910E-18
  8732.098    1.80719E-18
  8734.651    2.45559E-18
  8737.204    2.49764E-18
  8739.757    3.23302E-18
  8742.310    3.14918E-18
  8744.863    3.95993E-18
  8747.416    6.34943E-18
  8749.969    6.20752E-18
  8752.522    6.04345E-18
  8755.075    4.75590E-18
  8757.628    4.42150E-18
  8760.181    1.66484E-18
  8762.734    2.71247E-18
  8765.287    1.23715E-18
#  8767.840   -1.03640E-18
#  8770.393   -6.27422E-19
  8772.946    1.17867E-18
#  8775.499   -7.63644E-19
  8778.052    2.74740E-18
  8780.605    9.58926E-19
  8783.158    4.58027E-18
  8785.711    3.69504E-18
  8788.264    5.48172E-18
  8790.817    4.87609E-18
  8793.370    5.01724E-18
  8795.923    2.53094E-18
  8798.476    3.25580E-18
  8801.029    2.80619E-18
  8803.582    3.95234E-18
  8806.135    1.98586E-18
  8808.688    1.88453E-18
  8811.241    1.86119E-18
  8813.794    1.84046E-18
  8816.347    1.82232E-18
  8818.900    1.80667E-18
  8821.453    1.79324E-18
  8824.006    1.78163E-18
  8826.559    1.77141E-18
  8829.112    3.87176E-18
  8831.665    3.68182E-18
  8834.218    3.48971E-18
  8836.771    3.29434E-18
  8839.324    3.09500E-18
  8841.877    2.89141E-18
  8844.430    2.68374E-18
#  8846.983        0.00000
  8849.536    4.37386E-18
  8852.089    3.25336E-18
  8854.642    1.15689E-18
#  8857.195   -1.08822E-19
  8859.748    1.56683E-18
  8862.301    1.78139E-18
  8864.854    4.24902E-19
  8867.407    3.08110E-18
  8869.960    3.30928E-18
  8872.513    4.02946E-18
  8875.066    3.86322E-18
  8877.619    3.70305E-18
  8880.172    3.54837E-18
  8882.725    3.39828E-18
  8885.278    3.25143E-18
  8887.831    3.10635E-18
  8890.384    2.96153E-18
  8892.937    2.81553E-18
  8895.490    2.11882E-18
  8898.043    1.02723E-18
  8900.596    1.69760E-18
  8903.149    8.46066E-19
  8905.702    2.21813E-18
#  8908.255   -8.39037E-20
  8910.808    4.20774E-19
#  8913.361   -2.40527E-18
  8915.914    6.85518E-18
#  8918.467   -2.21818E-19
  8921.020    4.38976E-18
  8923.573    4.53310E-18
  8926.126    5.18699E-18
  8928.679    4.00432E-18
  8931.232    4.13009E-18
  8933.785    1.52696E-18
  8936.338    5.21626E-18
  8938.891    4.51019E-18
  8941.444    1.47572E-18
  8943.997    4.25528E-18
  8946.550    3.35138E-18
  8949.103    3.39731E-18
#  8951.656   -6.05619E-20
#  8954.209   -1.47671E-18
#  8956.762   -7.38179E-19
  8959.315    2.95197E-19
  8961.868    4.00275E-18
  8964.421    9.56319E-19
  8966.974    3.64637E-20
  8969.527    1.18800E-18
  8972.080    1.61034E-18
  8974.633    1.52690E-18
  8977.186    2.37052E-18
  8979.739    1.71464E-18
  8982.292    1.93674E-18
  8984.845    2.96564E-18
  8987.398    1.73872E-18
#  8989.951   -9.66952E-19
  8992.504    1.76160E-18
  8995.057    3.33029E-18
  8997.610    3.85599E-18
  9000.163    4.36091E-18
  9002.716    5.19224E-18
  9005.269    3.93418E-18
  9007.822    3.50464E-18
  9010.375    3.84968E-18
  9012.928    3.17633E-18
  9015.481    4.16801E-18
  9018.034    2.80602E-18
  9020.587    2.21309E-18
  9023.140    2.81323E-18
  9025.693    2.54553E-18
  9028.246    1.32778E-18
  9030.799    1.56002E-18
  9033.352    4.49390E-20
  9035.905    1.96862E-18
  9038.458    9.66583E-20
  9041.011    1.32207E-18
  9043.564    1.04709E-19
#  9046.117   -5.68817E-19
  9048.670    8.49667E-19
  9051.223    2.06651E-18
  9053.776    1.40518E-18
  9056.329    2.40400E-18
  9058.882    2.65043E-18
  9061.435    3.28166E-18
  9063.988    3.01855E-18
  9066.541    2.65968E-18
  9069.094    2.94144E-18
  9071.647    3.42353E-18
  9074.200    2.68446E-18
  9076.753    2.48478E-18
  9079.306    3.02791E-18
  9081.859    3.43237E-18
  9084.412    2.86988E-18
  9086.965    2.52890E-18
  9089.518    2.09534E-18
  9092.071    2.34858E-18
  9094.624    1.78093E-18
  9097.177    7.53296E-19
  9099.730    1.19296E-18
  9102.283    8.40347E-19
#  9104.836   -3.98046E-19
  9107.389    1.24787E-18
  9109.942    8.70559E-19
  9112.495    1.43047E-18
  9115.048    1.09009E-18
  9117.601    2.11925E-18
  9120.154    1.87722E-18
  9122.707    1.94940E-18
  9125.260    2.17684E-18
  9127.813    1.32602E-18
  9130.366    1.09755E-18
  9132.919    1.37537E-18
  9135.472    1.91910E-18
  9138.025    1.78317E-18
  9140.578    1.30344E-18
  9143.131    2.84060E-18
  9145.684    2.01714E-18
  9148.237    1.28027E-18
  9150.790    3.01185E-18
  9153.343    3.65830E-18
  9155.896    3.74902E-18
  9158.449    4.06678E-18
  9161.002    4.44936E-18
  9163.555    3.78148E-18
  9166.108    4.20477E-18
  9168.661    3.62533E-18
  9171.214    3.85562E-18
  9173.767    4.58743E-18
  9176.320    4.02766E-18
  9178.873    3.00181E-18
  9181.426    2.30758E-18
  9183.979    1.03352E-18
  9186.532    2.21290E-18
  9189.085    1.72016E-18
  9191.638    1.52158E-18
  9194.191    1.81260E-18
  9196.744    1.71072E-18
  9199.297    1.34779E-18
  9201.850    1.50456E-18
  9204.403    2.19099E-18
  9206.956    2.29126E-18
  9209.509    2.20122E-18
  9212.062    2.00157E-18
  9214.615    2.77355E-18
  9217.168    1.94934E-18
  9219.721    2.81457E-18
  9222.274    3.67679E-18
  9224.827    4.04118E-18
  9227.380    3.94013E-18
  9229.933    3.02268E-18
  9232.486    2.83770E-18
  9235.039    3.45659E-18
  9237.592    3.46156E-18
  9240.145    2.33612E-18
  9242.698    2.67049E-18
  9245.251    2.28782E-18
  9247.804    2.08913E-18
  9250.357    1.88076E-18
  9252.910    9.49817E-19
  9255.463    1.28353E-18
  9258.016    1.41546E-18
  9260.569    2.37069E-18
  9263.122    3.05450E-18
  9265.675    8.87018E-19
  9268.228    1.78258E-18
  9270.781    3.05276E-18
  9273.334    1.29837E-18
  9275.887    1.99785E-18
  9278.440    1.18534E-18
  9280.993    3.29629E-18
  9283.546    3.93956E-18
  9286.099    3.04783E-18
  9288.652    4.07329E-18
  9291.205    3.37188E-18
  9293.758    3.61920E-18
  9296.311    2.27452E-18
  9298.864    2.76466E-18
  9301.417    4.88313E-18
  9303.970    5.45147E-18
#  9306.523   -5.00181E-19
#  9309.076   -5.33778E-18
#  9311.629   -2.30381E-18
#  9314.182   -5.56745E-18
#  9316.735   -4.64412E-18
#  9319.288   -5.76945E-18
#  9321.841   -4.12408E-18
#  9324.394   -8.26595E-19
#  9326.947   -9.14250E-19
  9329.500    6.66226E-19
  9332.053    1.69712E-18
  9334.606    2.03613E-18
#  9337.159   -3.62536E-19
#  9339.712   -1.10747E-18
  9342.265    2.34351E-19
  9344.818    1.73418E-18
  9347.371    5.93014E-19
  9349.924    1.64071E-18
  9352.477    1.07574E-18
  9355.030    2.21105E-18
  9357.583    2.46204E-18
  9360.136    2.20625E-18
  9362.689    2.73488E-18
  9365.242    1.38480E-18
  9367.795    1.58208E-18
  9370.348    1.77393E-18
  9372.901    1.96041E-18
  9375.454    2.14199E-18
  9378.007    2.31957E-18
  9380.560    2.49435E-18
  9383.113    2.22364E-18
  9385.666    2.89580E-18
  9388.219    1.11473E-19
#  9390.772   -1.89220E-19
#  9393.325   -7.88369E-19
  9395.878    1.51926E-18
  9398.431    1.97999E-18
  9400.984    2.09150E-18
  9403.537    1.20660E-18
  9406.090    1.71163E-18
  9408.643    2.45312E-18
  9411.196    3.31115E-18
  9413.749    3.00930E-18
  9416.302    2.70075E-18
  9418.855    2.38488E-18
  9421.408    2.06155E-18
#  9423.961        0.00000
  9426.514    2.19478E-18
  9429.067    3.81799E-18
  9431.620    3.19446E-18
  9434.173    7.14519E-18
  9436.726    3.63037E-18
  9439.279    4.63265E-18
  9441.832    7.28812E-19
  9444.385    2.08087E-18
#  9446.938   -3.13417E-18
  9449.491    8.71774E-19
  9452.044    5.75108E-19
#  9454.597   -1.27653E-19
  9457.150    4.39981E-19
#  9459.703   -2.21623E-18
  9462.256    4.19878E-19
#  9464.809   -2.42615E-18
  9467.362    1.19774E-19
  9469.915    1.74040E-18
  9472.468    2.21784E-18
  9475.021    1.80516E-18
  9477.574    1.38979E-18
  9480.127    9.68767E-19
  9482.680    5.39442E-19
#  9485.233   -7.60696E-19
  9487.786    9.71164E-21
  9490.339    1.28783E-18
#  9492.892        0.00000
  9495.445    2.65654E-18
  9497.998    5.00654E-18
  9500.551    1.49128E-18
  9503.104    4.01913E-18
  9505.657    4.82221E-19
  9508.210    2.30230E-18
#  9510.763   -9.53810E-19
  9513.316    5.20852E-18
  9515.869    4.34650E-18
  9518.422    3.47962E-18
  9520.975    2.61367E-18
  9523.528    1.75412E-18
#  9526.081   -6.75871E-19
#  9528.634   -7.06435E-19
  9531.187    1.75930E-18
  9533.740    2.60737E-18
  9536.293    3.48067E-18
  9538.846    2.00015E-18
  9541.399    1.76314E-18
  9543.952    9.31233E-19
  9546.505    2.98544E-18
  9549.058    1.53172E-18
  9551.611    5.17928E-18
  9554.164    7.33937E-18
  9556.717    2.38553E-18
#  9559.270   -7.18323E-19
  9561.823    2.49153E-18
  9564.376    2.47233E-18
  9566.929    2.36709E-18
  9569.482    2.59217E-18
#  9572.035   -2.48119E-18
#  9574.588   -2.00492E-18
#  9577.141   -2.25342E-18
  9579.694    3.86038E-19
  9582.247    2.18429E-18
  9584.800    1.26704E-18
  9587.353    3.51280E-18
  9589.906    2.50508E-18
  9592.459    1.24693E-18
  9595.012    1.07947E-18
  9597.565    1.86091E-18
  9600.118    1.59682E-18
  9602.671    3.13810E-18
  9605.224    1.72063E-18
  9607.777    1.03421E-19
#  9610.330   -1.17009E-18
  9612.883    2.65441E-18
  9615.436    3.14261E-18
  9617.989    2.37511E-18
  9620.542    4.12837E-19
  9623.095    1.43366E-18
  9625.648    2.06599E-18
  9628.201    1.35073E-18
#  9630.754   -9.04885E-19
  9633.307    9.77630E-19
  9635.860    2.15642E-18
  9638.413    4.04782E-18
  9640.966    2.09389E-18
  9643.519    2.70583E-18
  9646.072    3.07139E-18
  9648.625    3.03943E-18
  9651.178    4.23187E-18
  9653.731    1.93000E-18
#  9656.284   -1.62938E-19
  9658.837    1.98504E-18
  9661.390    3.08534E-18
  9663.943    1.97800E-18
  9666.496    2.76344E-19
#  9669.049   -2.28742E-18
#  9671.602   -2.86218E-18
  9674.155    2.48399E-18
#  9676.708   -3.60806E-19
  9679.261    3.21427E-18
#  9681.814   -1.32157E-18
  9684.367    2.28287E-19
  9686.920    2.27913E-19
  9689.473    2.27718E-19
